File: weld_data.csv
Carbon concentration (weight%),Silicon concentration (weight%),Manganese concentration (weight%),Sulphur concentration (weight%),Phosphorus concentration (weight%),Nickel concentration (weight%),Chromium concentration (weight%),Molybdenum concentration (weight%),Vanadium concentration (weight%),Copper concentration (weight%),Cobalt concentration (weight%),Tungsten concentration (weight%),Oxygen concentration (ppm),Titanium concentration (ppm),Nitrogen concentration (ppm),Aluminium concentration (ppm),Boron concentration (ppm),Niobium concentration (ppm),Tin concentration (ppm),Arsenic concentration (ppm),Antimony concentration (ppm),Current (A),Voltage (V),AC or DC,Electrode positive or negative,Heat input (kJ/mm),Interpass temperature (deg C),Type of weld,Post weld heat treatment temperature (deg C),Post weld heat treatment time (hours),Yield strength (MPa),Ultimate tensile strength (MPa),Elongation (%),Reduction of Area (%),Charpy temperature (deg C),Charpy impact toughness (J),Hardness (kg/mm2),50 % FATT,Primary ferrite in microstructure (%),Ferrite with second phase (%),Acicular ferrite (%),Martensite (%),Ferrite with carbide aggregate (%),Weld ID
-1,-1,-1,-1,-1,-1,-1,-1,-1,-1,-1,-1,-1,-1,-1,-1,-1,-1,-1,-1,-1,-1,-1,-1,1,1.0,200.0,0,250.0,14.0,392.0,466.0,31.9,80.6,-1,-1,-1,-1,-1,-1,-1,-1,-1,Evans-Ni/CMn-1990/1991-0Aaw
-1,-1,-1,-1,-1,-1,-1,-1,-1,-1,-1,-1,-1,-1,-1,-1,-1,-1,-1,-1,-1,-1,-1,-1,1,1.0,200.0,0,580.0,2.0,370.0,456.0,35.2,80.6,-38,100.0,-1,-1,-1,-1,-1,-1,-1,Evans-Ni/CMn-1990/1991-0Aht
-1,-1,-1,-1,-1,-1,-1,-1,-1,-1,-1,-1,-1,-1,-1,-1,-1,-1,-1,-1,-1,-1,-1,-1,1,1.0,200.0,0,0.0,0.0,-1,-1,-1,-1,-48,100.0,-1,-1,32.0,28.0,40.0,0.0,0.0,Evans-Ni/CMn-1990/1991-0Bawch
-1,-1,-1,-1,-1,-1,-1,-1,-1,-1,-1,-1,-1,-1,-1,-1,-1,-1,-1,-1,-1,-1,-1,-1,1,1.0,200.0,0,250.0,14.0,468.0,551.0,29.4,78.7,-1,-1,-1,-1,-1,-1,-1,-1,-1,Evans-Ni/CMn-1990/1991-0Caw
-1,-1,-1,-1,-1,-1,-1,-1,-1,-1,-1,-1,-1,-1,-1,-1,-1,-1,-1,-1,-1,-1,-1,-1,1,1.0,200.0,0,580.0,2.0,436.0,529.0,31.6,78.8,-58,100.0,-1,-1,-1,-1,-1,-1,-1,Evans-Ni/CMn-1990/1991-0Cht
-1,-1,-1,-1,-1,-1,-1,-1,-1,-1,-1,-1,-1,-1,-1,-1,-1,-1,-1,-1,-1,-1,-1,-1,1,1.0,200.0,0,0.0,0.0,-1,-1,-1,-1,-38,100.0,-1,-1,13.0,17.0,60.0,0.0,0.0,Evans-Ni/CMn-1990/1991-0Dawch
-1,-1,-1,-1,-1,-1,-1,-1,-1,-1,-1,-1,-1,-1,-1,-1,-1,-1,-1,-1,-1,-1,-1,-1,1,1.0,200.0,0,250.0,14.0,411.0,484.0,32.6,79.3,-1,-1,-1,-1,-1,-1,-1,-1,-1,Evans-Ni/CMn-1990/1991-0.5Aaw
-1,-1,-1,-1,-1,-1,-1,-1,-1,-1,-1,-1,-1,-1,-1,-1,-1,-1,-1,-1,-1,-1,-1,-1,1,1.0,200.0,0,250.0,14.0,464.0,522.0,29.6,77.8,-1,-1,-1,-1,-1,-1,-1,-1,-1,Evans-Ni/CMn-1990/1991-0.5Baw
-1,-1,-1,-1,-1,-1,-1,-1,-1,-1,-1,-1,-1,-1,-1,-1,-1,-1,-1,-1,-1,-1,-1,-1,1,1.0,200.0,0,580.0,2.0,426.0,506.0,31.6,79.7,-1,-1,-1,-1,-1,-1,-1,-1,-1,Evans-Ni/CMn-1990/1991-0.5Bht
-1,-1,-1,-1,-1,-1,-1,-1,-1,-1,-1,-1,-1,-1,-1,-1,-1,-1,-1,-1,-1,-1,-1,-1,1,1.0,200.0,0,580.0,2.0,450.0,536.0,28.2,78.8,-1,-1,-1,-1,-1,-1,-1,-1,-1,Evans-Ni/CMn-1990/1991-0.5Cht
-1,-1,-1,-1,-1,-1,-1,-1,-1,-1,-1,-1,-1,-1,-1,-1,-1,-1,-1,-1,-1,-1,-1,-1,1,1.0,200.0,0,0.0,0.0,-1,-1,-1,-1,-1,-1,-1,-1,8.0,24.0,68.0,0.0,0.0,Evans-Ni/CMn-1990/1991-0.5Dawmic
-1,-1,-1,-1,-1,-1,-1,-1,-1,-1,-1,-1,-1,-1,-1,-1,-1,-1,-1,-1,-1,-1,-1,-1,1,1.0,200.0,0,250.0,14.0,423.0,497.0,30.6,78.8,-1,-1,-1,-1,-1,-1,-1,-1,-1,Evans-Ni/CMn-1990/1991-1Aaw
-1,-1,-1,-1,-1,-1,-1,-1,-1,-1,-1,-1,-1,-1,-1,-1,-1,-1,-1,-1,-1,-1,-1,-1,1,1.0,200.0,0,580.0,2.0,411.0,493.0,33.6,79.7,-40,100.0,-1,-1,-1,-1,-1,-1,-1,Evans-Ni/CMn-1990/1991-1Aht
-1,-1,-1,-1,-1,-1,-1,-1,-1,-1,-1,-1,-1,-1,-1,-1,-1,-1,-1,-1,-1,-1,-1,-1,1,1.0,200.0,0,0.0,0.0,-1,-1,-1,-1,-55,100.0,-1,-1,20.0,42.0,38.0,0.0,0.0,Evans-Ni/CMn-1990/1991-1Bawch
-1,-1,-1,-1,-1,-1,-1,-1,-1,-1,-1,-1,-1,-1,-1,-1,-1,-1,-1,-1,-1,-1,-1,-1,1,1.0,200.0,0,250.0,14.0,498.0,569.0,28.4,78.8,-1,-1,-1,-1,-1,-1,-1,-1,-1,Evans-Ni/CMn-1990/1991-1Caw
-1,-1,-1,-1,-1,-1,-1,-1,-1,-1,-1,-1,-1,-1,-1,-1,-1,-1,-1,-1,-1,-1,-1,-1,1,1.0,200.0,0,580.0,2.0,470.0,557.0,30.2,76.0,-20,100.0,-1,-1,-1,-1,-1,-1,-1,Evans-Ni/CMn-1990/1991-1Cht
-1,-1,-1,-1,-1,-1,-1,-1,-1,-1,-1,-1,-1,-1,-1,-1,-1,-1,-1,-1,-1,-1,-1,-1,1,1.0,200.0,0,0.0,0.0,-1,-1,-1,-1,-39,100.0,-1,-1,6.0,19.0,75.0,0.0,0.0,Evans-Ni/CMn-1990/1991-1Dawch
-1,-1,-1,-1,-1,-1,-1,-1,-1,-1,-1,-1,-1,-1,-1,-1,-1,-1,-1,-1,-1,-1,-1,-1,1,1.0,200.0,0,250.0,14.0,466.0,538.0,30.6,77.8,-1,-1,-1,-1,-1,-1,-1,-1,-1,Evans-Ni/CMn-1990/1991-2.25Aaw
-1,-1,-1,-1,-1,-1,-1,-1,-1,-1,-1,-1,-1,-1,-1,-1,-1,-1,-1,-1,-1,-1,-1,-1,1,1.0,200.0,0,580.0,2.0,431.0,518.0,32.2,76.9,-41,100.0,-1,-1,-1,-1,-1,-1,-1,Evans-Ni/CMn-1990/1991-2.25Aht
-1,-1,-1,-1,-1,-1,-1,-1,-1,-1,-1,-1,-1,-1,-1,-1,-1,-1,-1,-1,-1,-1,-1,-1,1,1.0,200.0,0,0.0,0.0,-1,-1,-1,-1,-59,100.0,-1,-1,16.0,38.0,46.0,0.0,0.0,Evans-Ni/CMn-1990/1991-2.25Bawch
-1,-1,-1,-1,-1,-1,-1,-1,-1,-1,-1,-1,-1,-1,-1,-1,-1,-1,-1,-1,-1,-1,-1,-1,1,1.0,200.0,0,250.0,14.0,567.0,635.0,23.6,72.7,-1,-1,-1,-1,-1,-1,-1,-1,-1,Evans-Ni/CMn-1990/1991-2.25Caw
-1,-1,-1,-1,-1,-1,-1,-1,-1,-1,-1,-1,-1,-1,-1,-1,-1,-1,-1,-1,-1,-1,-1,-1,1,1.0,200.0,0,580.0,2.0,530.0,615.0,26.6,73.0,-20,100.0,-1,-1,-1,-1,-1,-1,-1,Evans-Ni/CMn-1990/1991-2.25Cht
-1,-1,-1,-1,-1,-1,-1,-1,-1,-1,-1,-1,-1,-1,-1,-1,-1,-1,-1,-1,-1,-1,-1,-1,1,1.0,200.0,0,0.0,0.0,-1,-1,-1,-1,-30,100.0,-1,-1,5.0,14.0,81.0,0.0,0.0,Evans-Ni/CMn-1990/1991-2.25Dawch
-1,-1,-1,-1,-1,-1,-1,-1,-1,-1,-1,-1,-1,-1,-1,-1,-1,-1,-1,-1,-1,-1,-1,-1,1,1.0,200.0,0,250.0,14.0,479.0,561.0,30.4,76.6,-1,-1,-1,-1,-1,-1,-1,-1,-1,Evans-Ni/CMn-1990/1991-3.5Aaw
-1,-1,-1,-1,-1,-1,-1,-1,-1,-1,-1,-1,-1,-1,-1,-1,-1,-1,-1,-1,-1,-1,-1,-1,1,1.0,200.0,0,580.0,2.0,482.0,560.0,31.4,48.8,-63,100.0,-1,-1,-1,-1,-1,-1,-1,Evans-Ni/CMn-1990/1991-3.5Aht
-1,-1,-1,-1,-1,-1,-1,-1,-1,-1,-1,-1,-1,-1,-1,-1,-1,-1,-1,-1,-1,-1,-1,-1,1,1.0,200.0,0,0.0,0.0,-1,-1,-1,-1,-48,100.0,-1,-1,14.0,35.0,51.0,0.0,0.0,Evans-Ni/CMn-1990/1991-3.5Bawch
-1,-1,-1,-1,-1,-1,-1,-1,-1,-1,-1,-1,-1,-1,-1,-1,-1,-1,-1,-1,-1,-1,-1,-1,1,1.0,200.0,0,250.0,14.0,621.0,682.0,25.4,72.9,-1,-1,-1,-1,-1,-1,-1,-1,-1,Evans-Ni/CMn-1990/1991-3.5Caw
-1,-1,-1,-1,-1,-1,-1,-1,-1,-1,-1,-1,-1,-1,-1,-1,-1,-1,-1,-1,-1,-1,-1,-1,1,1.0,200.0,0,580.0,2.0,584.0,677.0,26.6,70.8,56.0,100.0,-1,-1,-1,-1,-1,-1,-1,Evans-Ni/CMn-1990/1991-3.5Cht
-1,-1,-1,-1,-1,-1,-1,-1,-1,-1,-1,-1,-1,-1,-1,-1,-1,-1,-1,-1,-1,-1,-1,-1,1,1.0,200.0,0,0.0,0.0,-1,-1,-1,-1,24.0,100.0,-1,-1,0.0,33.0,37.0,30.0,0.0,Evans-Ni/CMn-1990/1991-3.5Dawch
-1,-1,-1,-1,-1,-1,-1,-1,-1,-1,-1,-1,-1,-1,-1,-1,-1,-1,-1,-1,-1,-1,-1,-1,1,1.0,200.0,0,580.0,2.0,662.0,745.0,24.0,67.5,-1,-1,-1,-1,-1,-1,-1,-1,-1,Evans-Ni/CMn-1990/1991-3.5Dht
-1,-1,-1,-1,-1,-1,-1,-1,-1,-1,-1,-1,-1,-1,-1,-1,-1,-1,-1,-1,-1,-1,-1,-1,1,1.0,150.0,0,0.0,0.0,484.0,560.0,26.0,78.8,-1,-1,-1,-1,-1,-1,-1,-1,-1,Es-Souni&-Cu/CMn-1990--aw***WELDINGPROCEDURE***EvansWeldingJVol59No3(1980)67
-1,-1,-1,-1,-1,-1,-1,-1,-1,-1,-1,-1,-1,-1,-1,-1,-1,-1,-1,-1,-1,-1,-1,-1,1,1.0,150.0,0,580.0,2.0,471.0,563.0,31.2,77.0,-1,-1,-1,-1,-1,-1,-1,-1,-1,Es-Souni&-Cu/CMn-1990--ht
-1,-1,-1,-1,-1,-1,-1,-1,-1,-1,-1,-1,-1,-1,-1,-1,-1,-1,-1,-1,-1,-1,-1,-1,1,1.0,200.0,0,0.0,0.0,-1,-1,-1,-1,-1,-1,-1,-1,35.0,44.0,21.0,0.0,0.0,Evans-AlTi-1994-5/250mic
-1,-1,-1,-1,-1,-1,-1,-1,-1,-1,-1,-1,-1,-1,-1,-1,-1,-1,-1,-1,-1,-1,-1,-1,1,1.0,200.0,0,0.0,0.0,-1,-1,-1,-1,-90,28.0,-1,-1,-1,-1,-1,-1,-1,Evans-AlTi-1994-40/490ch1
-1,-1,-1,-1,-1,-1,-1,-1,-1,-1,-1,-1,-1,-1,-1,-1,-1,-1,-1,-1,-1,-1,-1,-1,1,1.0,200.0,0,0.0,0.0,-1,-1,-1,-1,-67,28.0,-1,-1,-1,-1,-1,-1,-1,Evans-AlTi-1994-220/3ch1
-1,-1,-1,-1,-1,-1,-1,-1,-1,-1,-1,-1,-1,-1,-1,-1,-1,-1,-1,-1,-1,-1,-1,-1,1,1.0,200.0,0,0.0,0.0,-1,-1,-1,-1,-1,-1,-1,-1,15.0,10.0,75.0,0.0,0.0,Evans-AlTi-1994-450/1mic
-1,-1,-1,-1,-1,-1,-1,-1,-1,-1,-1,-1,-1,-1,-1,-1,-1,-1,-1,-1,-1,-1,-1,-1,1,1.0,175.0,0,750.0,8.0,-1,-1,-1,-1,-30,28.0,-1,-1,-1,-1,-1,-1,-1,Evans-B/9Cr1Mo-1994-CM58
-1,-1,-1,-1,-1,-1,-1,-1,-1,-1,-1,-1,-1,-1,-1,-1,-1,-1,-1,-1,-1,-1,-1,-1,1,1.0,175.0,0,750.0,8.0,-1,-1,-1,-1,-70,100.0,-1,-1,-1,-1,-1,-1,-1,Evans-B/9Cr1Mo-1994-CM64
-1,-1,-1,-1,-1,-1,-1,-1,-1,-1,-1,-1,-1,-1,-1,-1,-1,-1,-1,-1,-1,-1,-1,-1,1,1.0,200.0,0,250.0,14.0,494.0,545.0,29.6,77.0,-1,-1,-1,-1,-1,-1,-1,-1,-1,Evans-Cr/CMn-1989-0.5B-aw
-1,-1,-1,-1,-1,-1,-1,-1,-1,-1,-1,-1,-1,-1,-1,-1,-1,-1,-1,-1,-1,-1,-1,-1,1,1.0,200.0,0,0.0,0.0,-1,-1,-1,-1,16.0,100.0,-1,-1,2.0,88.0,10.0,0.0,0.0,Evans-Cr/CMn-1989-2.3B-ch
-1,-1,-1,-1,-1,-1,-1,-1,-1,-1,-1,-1,-1,-1,-1,-1,-1,-1,-1,-1,-1,-1,-1,-1,1,1.0,200.0,0,0.0,0.0,-1,-1,-1,-1,-77,28.0,-1,-1,-1,-1,-1,-1,-1,Evans-Al/CMn-1990-78awch1
-1,-1,-1,-1,-1,-1,-1,-1,-1,-1,-1,-1,-1,-1,-1,-1,-1,-1,-1,-1,-1,-1,-1,-1,1,1.0,200.0,0,250.0,14.0,485.0,560.0,25.2,78.9,-1,-1,-1,-1,-1,-1,-1,-1,-1,Evans-Al/CMn-1990-490aw
-1,-1,-1,-1,-1,-1,-1,-1,-1,-1,-1,-1,-1,-1,-1,-1,-1,-1,-1,-1,-1,-1,-1,-1,1,1.0,200.0,0,250.0,14.0,490.0,563.0,25.2,77.0,-1,-1,-1,-1,-1,-1,-1,-1,-1,Evans-V/Mn-1991-A815aw
-1,-1,-1,-1,-1,-1,-1,-1,-1,-1,-1,-1,-1,-1,-1,-1,-1,-1,-1,-1,-1,-1,-1,-1,1,1.0,200.0,0,580.0,2.0,526.0,594.0,26.0,76.0,-62,100.0,-1,-1,-1,-1,-1,-1,-1,Evans-V/Mn-1991-C425ht
-1,-1,-1,-1,-1,-1,-1,-1,-1,-1,-1,-1,-1,-1,-1,-1,-1,-1,-1,-1,-1,-1,-1,-1,1,1.0,200.0,0,0.0,0.0,-1,-1,-1,-1,-33,100.0,-1,-1,27.0,60.0,13.0,0.0,0.0,Evans-Nb/Mn-1991-A120awch
-1,-1,-1,-1,-1,-1,-1,-1,-1,-1,-1,-1,-1,-1,-1,-1,-1,-1,-1,-1,-1,-1,-1,-1,1,1.0,200.0,0,250.0,14.0,463.0,541.0,27.1,75.9,-1,-1,-1,-1,-1,-1,-1,-1,-1,Evans-Nb/Mn-1991-C<6aw
-1,-1,-1,-1,-1,-1,-1,-1,-1,-1,-1,-1,-1,-1,-1,-1,-1,-1,-1,-1,-1,-1,-1,-1,1,1.0,200.0,0,580.0,2.0,577.0,661.0,21.6,71.9,-15,100.0,-1,-1,-1,-1,-1,-1,-1,Evans-Nb/Mn-1991-D450ht
-1,-1,-1,-1,-1,-1,-1,-1,-1,-1,-1,-1,-1,-1,-1,-1,-1,-1,-1,-1,-1,-1,-1,-1,1,1.0,200.0,0,580.0,2.0,-1,-1,-1,-1,-50,74.0,-1,-1,-1,-1,-1,-1,-1,Evans-StressRelief-1991-0.045Bch-50
-1,-1,-1,-1,-1,-1,-1,-1,-1,-1,-1,-1,-1,-1,-1,-1,-1,-1,-1,-1,-1,-1,-1,-1,1,1.0,200.0,0,580.0,2.0,-1,-1,-1,-1,-60,45.0,-1,-1,-1,-1,-1,-1,-1,Evans-StressRelief-1991-0.065Bch-60
-1,-1,-1,-1,-1,-1,-1,-1,-1,-1,-1,-1,-1,-1,-1,-1,-1,-1,-1,-1,-1,-1,-1,-1,1,1.0,200.0,0,580.0,2.0,435.0,546.0,34.0,77.0,-1,-1,-1,-1,-1,-1,-1,-1,-1,Evans-StressRelief-1991-0.095B
-1,-1,-1,-1,-1,-1,-1,-1,-1,-1,-1,-1,-1,-1,-1,-1,-1,-1,-1,-1,-1,-1,-1,-1,1,1.0,200.0,0,580.0,2.0,-1,-1,-1,-1,20.0,188.0,-1,-1,-1,-1,-1,-1,-1,Evans-StressRelief-1991-0.145Ach20
-1,-1,-1,-1,-1,-1,-1,-1,-1,-1,-1,-1,-1,-1,-1,-1,-1,-1,-1,-1,-1,-1,-1,-1,1,1.0,200.0,0,0.0,0.0,-1,-1,-1,-1,-45,100.0,-1,-1,19.0,51.0,26.0,0.0,4.0,Evans-Ti/Mn-1992-A36awch
-1,-1,-1,-1,-1,-1,-1,-1,-1,-1,-1,-1,-1,-1,-1,-1,-1,-1,-1,-1,-1,-1,-1,-1,1,1.0,200.0,0,250.0,14.0,420.0,523.0,26.4,77.0,-1,-1,-1,-1,-1,-1,-1,-1,-1,Evans-Ti/Mn-1992-C5aw
-1,-1,-1,-1,-1,-1,-1,-1,-1,-1,-1,-1,-1,-1,-1,-1,-1,-1,-1,-1,-1,-1,-1,-1,1,1.0,200.0,0,580.0,2.0,471.0,565.0,27.8,78.0,-57,100.0,-1,-1,-1,-1,-1,-1,-1,Evans-Ti/Mn-1992-D170ht
-1,-1,-1,-1,-1,-1,-1,-1,-1,-1,-1,-1,-1,-1,-1,-1,-1,-1,-1,-1,-1,-1,-1,-1,1,1.0,150.0,0,500.0,2.0,370.0,456.0,35.2,80.6,-32,100.0,-1,-1,-1,-1,-1,-1,-1,Evans-Mn-1977-Aht
-1,-1,-1,-1,-1,-1,-1,-1,-1,-1,-1,-1,-1,-1,-1,-1,-1,-1,-1,-1,-1,-1,-1,-1,1,1.0,175.0,0,750.0,8.0,525.0,696.0,19.8,64.4,-1,-1,-1,-1,-1,-1,-1,-1,-1,Evans-AlEl9Cr1Mo-1994-1Co
-1,-1,-1,-1,-1,-1,-1,-1,-1,-1,-1,-1,-1,-1,-1,-1,-1,-1,-1,-1,-1,-1,-1,-1,1,1.8,100.0,0,620.0,1.0,693.0,783.0,-1,-1,-1,-1,-1,-1,-1,-1,-1,-1,-1,RaiterGonzal-Mo-1989-9ht
-1,-1,-1,-1,-1,-1,-1,-1,-1,-1,-1,-1,-1,-1,-1,-1,-1,-1,-1,-1,-1,-1,-1,-1,1,1.0,250.0,0,0.0,0.0,-1,-1,-1,-1,-60,43.0,-1,-1,-1,-1,-1,-1,-1,SvenGret-1990-5Ch-6
-1,-1,-1,-1,-1,-1,-1,-1,-1,-1,-1,-1,-1,-1,-1,-1,-1,-1,-1,-1,-1,-1,-1,-1,1,1.0,250.0,0,0.0,0.0,-1,-1,-1,-1,-20,160.0,-1,-1,-1,-1,-1,-1,-1,SvenGret-1990-9Ch-2
-1,-1,-1,-1,-1,-1,-1,-1,-1,-1,-1,-1,-1,-1,-1,-1,-1,-1,-1,-1,-1,-1,-1,-1,1,1.0,250.0,0,0.0,0.0,-1,-1,-1,-1,20.0,190.0,-1,-1,-1,-1,-1,-1,-1,SvenGret-1990-13Ch2
-1,-1,-1,-1,-1,-1,-1,-1,-1,-1,-1,-1,-1,-1,-1,-1,-1,-1,-1,-1,-1,-1,-1,-1,1,2.9,200.0,2,200.0,14.0,-1,498.0,-1,-1,-1,-1,-1,-1,-1,-1,-1,-1,-1,PakSven-1990-8
-1,-1,-1,-1,-1,-1,-1,-1,-1,-1,-1,-1,-1,-1,-1,-1,-1,-1,-1,-1,-1,-1,-1,-1,1,2.0,200.0,1,0.0,0.0,649.0,-1,-1,-1,-1,-1,257.0,6.0,-1,-1,-1,-1,-1,Hunt&-Di-1994-1
-1,-1,-1,-1,-1,-1,-1,-1,-1,-1,-1,-1,-1,-1,-1,-1,-1,-1,-1,-1,-1,-1,-1,-1,1,4.8,200.0,1,0.0,0.0,489.0,807.0,27.0,42.0,51.0,35.0,-1,-1,-1,-1,-1,-1,-1,Kluket-CuMnB-1994-11
-1,-1,-1,-1,-1,-1,-1,-1,-1,-1,-1,-1,-1,-1,-1,-1,-1,-1,-1,-1,-1,-1,-1,-1,1,2.4,200.0,1,0.0,0.0,420.8,504.2,33.0,73.0,-1,-1,164.0,-1,-1,-1,-1,-1,-1,Cunh-1982-13aw
-1,-1,-1,-1,-1,-1,-1,-1,-1,-1,-1,-1,-1,-1,-1,-1,-1,-1,-1,-1,-1,-1,-1,-1,1,4.6,200.0,3,0.0,0.0,-1,-1,-1,-1,-40,38.0,-1,-1,-1,-1,-1,-1,-1,Pat-1981-RE3L/BX200
-1,-1,-1,-1,-1,-1,-1,-1,-1,-1,-1,-1,-1,-1,-1,-1,-1,-1,-1,-1,-1,-1,-1,-1,1,4.6,200.0,3,0.0,0.0,-1,-1,-1,-1,-20,32.0,-1,-1,-1,-1,-1,-1,-1,Pat-1981-S4Mo/BX200
-1,-1,-1,-1,-1,-1,-1,-1,-1,-1,-1,-1,-1,-1,-1,-1,-1,-1,-1,-1,-1,-1,-1,-1,1,4.4,200.0,3,0.0,0.0,-1,-1,-1,-1,0.0,144.0,-1,-1,-1,-1,-1,-1,-1,Pat-1981-S4/BX400
-1,-1,-1,-1,-1,-1,-1,-1,-1,-1,-1,-1,-1,-1,-1,-1,-1,-1,-1,-1,-1,-1,-1,-1,1,3.6,100.0,1,0.0,0.0,441.0,557.0,16.0,69.0,34.0,70.0,-1,25.0,-1,-1,-1,-1,-1,Wats-1981-FW5
-1,-1,-1,-1,-1,-1,-1,-1,-1,-1,-1,-1,-1,-1,-1,-1,-1,-1,-1,-1,-1,-1,-1,-1,1,4.3,200.0,0,0.0,0.0,-1,-1,-1,-1,-15,100.0,-1,-1,-1,-1,-1,-1,-1,EvHtIp1979-4.3AC
-1,-1,-1,-1,-1,-1,-1,-1,-1,-1,-1,-1,-1,-1,-1,-1,-1,-1,-1,-1,-1,-1,-1,-1,1,1.0,20.0,0,0.0,0.0,604.0,657.0,22.0,71.9,-29,100.0,-1,-1,-1,-1,-1,-1,-1,Evans-intpss-1978-D20
-1,-1,-1,-1,-1,-1,-1,-1,-1,-1,-1,-1,-1,-1,-1,-1,-1,-1,-1,-1,-1,-1,-1,-1,1,7.6,300.0,1,-1,-1,720.0,-1,15.0,55.0,-1,-1,-1,-1,-1,-1,-1,-1,-1,Gar&K-1975-25mm-7ht
-1,-1,-1,-1,-1,-1,-1,-1,-1,-1,-1,-1,-1,-1,-1,-1,-1,-1,-1,-1,-1,-1,-1,-1,1,3.3,300.0,1,600.0,0.75,405.0,562.0,26.0,60.0,-1,-1,-1,-1,-1,-1,-1,-1,-1,Gar&K-1975-12mm-20ht
-1,-1,-1,-1,-1,-1,-1,-1,-1,-1,-1,-1,-1,-1,-1,-1,-1,-1,-1,-1,-1,-1,-1,-1,1,3.3,300.0,1,0.0,0.0,620.0,712.0,22.0,58.0,-1,-1,-1,-1,-1,-1,-1,-1,-1,Ga&K-1975II-10aw
-1,-1,-1,-1,-1,-1,-1,-1,-1,-1,-1,-1,-1,-1,-1,-1,-1,-1,-1,-1,-1,-1,-1,-1,1,1.0,175.0,0,720.0,2.0,-1,-1,-1,-1,-1,-1,277.0,-1,-1,-1,-1,-1,-1,PantK-1990-w7.1
-1,-1,-1,-1,-1,-1,-1,-1,-1,-1,-1,-1,-1,-1,-1,-1,-1,-1,-1,-1,-1,-1,-1,-1,1,1.1,200.0,0,760.0,8.0,-1,-1,-1,-1,-20,10.0,-1,-1,-1,-1,-1,-1,-1,PantK-1990-bw4.1
-1,-1,-1,-1,-1,-1,-1,-1,-1,-1,-1,-1,-1,-1,-1,-1,-1,-1,-1,-1,-1,-1,-1,-1,0.0,2.9,200.0,1,690.0,8.0,-1,-1,-1,-1,-20,18.0,-1,-1,-1,-1,-1,-1,-1,Icici&-1992-CM1ch5
-1,-1,-1,-1,-1,-1,-1,-1,-1,-1,-1,-1,-1,-1,-1,-1,-1,-1,-1,-1,-1,-1,-1,-1,1,2.4,100.0,1,550.0,1.83,473.0,605.0,28.8,73.0,-1,-1,-1,-1,-1,-1,-1,-1,-1,Blond&-1984-A530b
-1,-1,-1,-1,-1,-1,-1,-1,-1,-1,-1,-1,-1,-1,-1,-1,-1,-1,-1,-1,-1,-1,-1,-1,1,2.04,150.0,2,690.0,10.0,-1,-1,-1,-1,-30,28.0,-1,-1,-1,-1,-1,-1,-1,Mart-Ae
-1,-1,-1,-1,-1,-1,-1,-1,-1,-1,-1,-1,-1,-1,-1,-1,-1,-1,-1,-1,-1,-1,-1,-1,1,1.96,150.0,2,690.0,10.0,-1,-1,-1,-1,-70,6.0,-1,-1,-1,-1,-1,-1,-1,Mart-Db
-1,-1,-1,-1,-1,-1,-1,-1,-1,-1,-1,-1,-1,-1,-1,-1,-1,-1,-1,-1,-1,-1,-1,-1,1,2.0,150.0,2,690.0,10.0,-1,-1,-1,-1,50.0,93.0,-1,-1,-1,-1,-1,-1,-1,Mart-Fh
-1,-1,-1,-1,-1,-1,-1,-1,-1,-1,-1,-1,-1,-1,-1,-1,-1,-1,-1,-1,-1,-1,-1,-1,1,1.0,300.0,0,690.0,3.0,581.0,693.0,20.0,69.0,-1,-1,230.0,-1,-1,-1,-1,-1,-1,Wolst-1974-Y
-1,-1,-1,-1,-1,-1,-1,-1,-1,-1,-1,-1,-1,-1,-1,-1,-1,-1,-1,-1,-1,-1,-1,-1,1,1.75,210.0,1,700.0,20.0,-1,-1,-1,-1,-10,197.0,-1,-1,-1,-1,-1,-1,-1,Ditt-oatch2
-1,-1,-1,-1,-1,-1,-1,-1,-1,-1,-1,-1,-1,-1,-1,-1,-1,-1,-1,-1,-1,-1,-1,-1,1,4.8,100.0,1,200.0,1.0,337.0,477.0,32.6,71.0,-1,-1,-1,-1,-1,-1,-1,-1,-1,p12-RR82011
-1,-1,-1,-1,-1,-1,-1,-1,-1,-1,-1,-1,-1,-1,-1,-1,-1,-1,-1,-1,-1,-1,-1,-1,1,2.025,250.0,1,200.0,1.0,473.0,582.0,26.8,70.0,-1,-1,-1,-1,-1,-1,-1,-1,-1,p28-RR82011
-1,-1,-1,-1,-1,-1,-1,-1,-1,-1,-1,-1,-1,-1,-1,-1,-1,-1,-1,-1,-1,-1,-1,-1,-1,1.0,200.0,0,250.0,14.0,-1,-1,-1,-1,-95,28.0,-1,-1,-1,-1,-1,-1,-1,EvansLetter-Ao+2Nich2
-1,-1,-1,-1,-1,-1,-1,-1,-1,-1,-1,-1,-1,-1,-1,-1,-1,-1,-1,-1,-1,-1,-1,-1,-1,1.0,200.0,0,250.0,14.0,-1,-1,-1,-1,-54,100.0,-1,-1,-1,-1,-1,-1,-1,EvansLetter-Ao+1Cuch1
-1,-1,-1,-1,-1,-1,-1,-1,-1,-1,-1,-1,-1,-1,-1,-1,-1,-1,-1,-1,-1,-1,-1,-1,-1,1.0,200.0,0,250.0,14.0,490.0,558.0,21.0,77.9,-1,-1,-1,-1,-1,-1,-1,-1,-1,EvansLetter-A+1Cr
-1,-1,-1,-1,-1,-1,-1,-1,-1,-1,-1,-1,-1,-1,-1,-1,-1,-1,-1,-1,-1,-1,-1,-1,-1,1.0,200.0,0,250.0,14.0,-1,-1,-1,-1,-61,28.0,-1,-1,-1,-1,-1,-1,-1,EvansLetterCo+2Nich2
-1,-1,-1,-1,-1,-1,-1,-1,-1,-1,-1,-1,-1,-1,-1,-1,-1,-1,-1,-1,-1,-1,-1,-1,-1,1.0,200.0,0,250.0,14.0,-1,-1,-1,-1,-4,100.0,-1,-1,-1,-1,-1,-1,-1,EvansLetterCo+1Chch1
-1,-1,-1,-1,-1,-1,-1,-1,-1,-1,-1,-1,-1,-1,-1,-1,-1,-1,-1,-1,-1,-1,-1,-1,-1,1.0,200.0,0,250.0,14.0,624.0,672.0,20.0,73.0,-1,-1,-1,-1,-1,-1,-1,-1,-1,EvansLetterC+1Cr
-1,-1,-1,-1,-1,-1,-1,-1,-1,-1,-1,-1,-1,-1,-1,-1,-1,-1,-1,-1,-1,-1,-1,-1,1,2.0,200.0,1,760.0,2.0,-1,-1,-1,-1,-1,-1,-1,-1,-1,-1,-1,-1,-1,Birmingham-MAX39