File: Dataset/weld_data_preprocessing1.0.csv
Carbon concentration (weight%),Silicon concentration (weight%),Manganese concentration (weight%),Sulphur concentration (weight%),Phosphorus concentration (weight%),Oxygen concentration (%),Titanium concentration (%),Nitrogen concentration (%),Current (A),Voltage (V),Heat input (kJ/mm),Interpass temperature (deg C),Post weld heat treatment temperature (deg C),Post weld heat treatment time (hours),Nickel concentration (weight%),Chromium concentration (weight%),Molybdenum concentration (weight%),Vanadium concentration (weight%),Copper concentration (weight%),Aluminium concentration (%),Boron concentration (%),Niobium concentration (%),Tin concentration (%),Arsenic concentration (%),Antimony concentration (%),Yield strength (MPa),Ultimate tensile strength (MPa),Elongation (%),Reduction of Area (%),Charpy temperature (deg C),Charpy impact toughness (J),Hardness (kg/mm2),Primary ferrite in microstructure (%),Ferrite with second phase (%),Acicular ferrite (%),AC or DC,Electrode positive or negative,Type of weld,Weld ID
0.037,0.3,0.65,0.008,0.012,0.0422,0.0042,0.008,170.0,21.0,1.0,200.0,250.0,14.0,0.0,1.04509,-1.33255,-0.0112067,-0.0992178,0.0039423,0.000236109,0.00142705,-0.00645238,0.00577941,-0.00108709,392.0,466.0,31.9,80.6,11.4993,127.485,251.47,-52.371,1.91389,149.645,0.0,1,0,Evans-Ni/CMn-1990/1991-0Aaw
0.041,0.3,0.62,0.007,0.01,0.0422,0.0042,0.008,170.0,21.0,1.0,200.0,0.0,0.0,2.38,-2.85535,-0.88668,-0.113222,0.423126,0.0309981,-0.000135494,0.00169802,0.00307117,0.00625009,-0.00176644,588.607,612.364,24.1587,72.1122,-50.0,100.0,268.225,-9.30993,42.5795,59.6949,0.0,1,0,Evans-Ni/CMn-1990/1991-2.25Aawch
0.079,0.39,1.37,0.005,0.011,0.0446,0.0005,0.0047,170.0,21.0,1.0,200.0,0.0,0.0,1.04621,1.15893,0.360985,0.183307,0.0394353,0.025,0.00083373,-0.00630368,0.0112594,-0.00522064,0.0169738,583.046,665.756,24.6022,69.9768,-25.0,100.0,267.253,18.1773,31.4542,50.3147,0.0,1,0,Evans-AlTi-1994-5/250ch2
0.069,0.45,1.36,0.005,0.008,0.0374,0.0063,0.0044,170.0,21.0,1.0,200.0,250.0,14.0,0.358897,4.42234,0.156435,-0.0396319,0.725679,0.028,-0.000171906,-0.0134503,-0.00726223,0.00309718,0.012546,474.0,540.0,28.0,80.7,7.30447,99.1095,196.022,28.1559,67.5771,-6.05539,0.0,1,0,Evans-AlTi-1994-80/280ht
0.086,0.2,1.04,0.008,0.013,0.0567,0.0042,0.016,180.0,34.0,1.0,175.0,750.0,8.0,0.520298,8.98,1.01,0.22,0.4433,0.0157218,0.0036,0.056,0.016642,0.0105987,0.00755786,414.081,483.314,28.2886,81.6159,-19.0,28.0,271.847,35.7434,55.1367,7.988,0.0,1,0,Evans-B/9Cr1Mo-1994-CM63
0.051,0.33,1.83,0.006,0.013,0.0422,0.0042,0.008,170.0,21.0,1.0,200.0,580.0,2.0,0.609486,0.52,0.538305,0.1339,-0.151145,0.0372616,-0.000439943,0.0219358,0.00832133,0.00378682,0.00135745,570.0,650.0,24.0,68.7,-2.0,100.0,205.777,-37.1178,-0.000814327,123.443,0.0,1,0,Evans-Cr/CMn-1989-0.5D-ht
0.073,0.33,1.39,0.007,0.008,0.0427,0.0039,0.0066,170.0,21.0,1.0,200.0,580.0,2.0,1.42332,0.884886,0.175551,0.0005,0.59632,0.002,0.0005,0.0005,-0.00759058,-0.00348146,-0.00149838,662.36,665.052,23.618,78.3722,-78.0,100.0,224.921,34.3034,42.4214,33.7037,0.0,1,0,Evans-Al/CMn-1990-20htch2
0.076,0.51,1.3,0.005,0.008,0.0423,0.0043,0.005,170.0,21.0,1.0,200.0,0.0,0.0,-0.477045,1.23763,1.07697,0.0005,0.482737,0.049,0.0005,0.0005,0.000761804,-0.00428389,0.00596888,406.859,518.306,22.3221,77.7121,-90.0,28.0,169.525,4.79058,9.5187,62.0565,0.0,1,0,Evans-Al/CMn-1990-490awch1
0.077,0.32,1.05,0.008,0.006,0.04,0.0034,0.0072,170.0,21.0,1.0,200.0,580.0,2.0,0.129081,5.40174,0.551864,0.085,0.163635,0.0005,0.0005,0.0005,0.00928474,-0.00453529,0.00371807,538.0,609.0,25.4,75.0,-40.0,100.0,290.577,-0.74752,14.8044,94.5227,0.0,1,0,Evans-V/Mn-1991-B850ht
0.073,0.34,0.64,0.007,0.005,0.0431,0.0041,0.008,170.0,21.0,1.0,200.0,0.0,0.0,-0.0759636,-5.66025,-0.446549,0.0003,-0.234548,0.0005,0.0005,0.012,0.0118125,0.00722281,0.00895538,436.121,471.504,34.6429,84.5666,-33.0,100.0,240.767,27.0,60.0,13.0,0.0,1,0,Evans-Nb/Mn-1991-A120awch
0.077,0.32,1.77,0.007,0.006,0.0418,0.0031,0.0089,170.0,21.0,1.0,200.0,250.0,14.0,-0.0805125,-1.33299,-0.391146,0.0004,0.0910535,0.0005,0.0005,0.0125,-0.000297301,-0.00532892,0.00417191,540.0,614.0,22.0,75.9,-17.6886,147.965,246.863,-7.29512,28.1911,98.3715,0.0,1,0,Evans-Nb/Mn-1991-D125aw
0.045,0.31,1.39,0.005,0.007,0.0422,0.0042,0.008,170.0,21.0,1.0,200.0,580.0,2.0,0.443046,0.843593,-0.0422886,0.0966899,0.421563,0.00276018,0.00103852,0.0559544,0.00392746,0.00347147,0.00933627,414.0,502.0,31.0,80.6,-74.0094,20.1084,215.789,22.3011,38.9944,40.321,0.0,1,0,Evans-StressRelief-1991-0.045C
0.074,0.36,1.8,0.008,0.008,0.0422,0.0042,0.008,170.0,21.0,1.0,200.0,580.0,2.0,-0.198626,-1.03761,0.709784,-0.0238616,0.0922574,0.0173925,0.000638552,0.00741777,0.00783438,0.000232128,0.00727723,386.994,541.783,30.3846,76.5828,-70.0,30.0,156.617,63.25,17.0692,26.9673,0.0,1,0,Evans-StressRelief-1991-0.065Dch-70
0.147,0.36,1.02,0.007,0.007,0.0422,0.0042,0.008,170.0,21.0,1.0,200.0,580.0,2.0,-0.504735,-0.0114017,0.820392,-0.158241,-0.136904,0.00279924,-0.000376287,-0.036468,0.00197859,0.00526238,0.00351256,391.522,548.521,28.5122,71.7511,-70.0,17.0,189.991,19.2227,61.3543,17.5161,0.0,1,0,Evans-StressRelief-1991-0.145Bch-70
0.061,0.33,1.36,0.005,0.006,0.0419,0.0028,0.0081,170.0,21.0,1.0,200.0,0.0,0.0,-0.715095,0.60708,0.308736,-0.258026,0.306004,0.00745209,-0.000642995,-0.0538506,0.0037998,-0.00243521,0.00581057,131.721,275.413,36.5916,92.1847,7.76703,85.635,178.266,23.0,8.0,69.0,0.0,1,4,Evans-Ti/CMn-1992-Q0.4mic
0.076,0.38,0.67,0.009,0.007,0.0362,0.016,0.007,170.0,21.0,1.0,200.0,0.0,0.0,-0.171346,5.39928,0.659361,0.0005,0.0845105,0.0005,0.0005,0.0005,-0.0146352,-0.0168371,0.00116828,597.222,686.483,25.1105,67.2258,-36.0,100.0,225.974,19.0,44.0,35.0,0.0,1,0,Evans-Ti/Mn-1992-A160awch
0.077,0.28,1.79,0.007,0.006,0.0439,0.0007,0.0082,170.0,21.0,1.0,200.0,250.0,14.0,0.969464,3.33187,1.46721,0.0005,0.275667,0.0005,0.0005,0.0005,0.0118177,0.0131619,-0.00275972,458.0,568.0,28.6,76.0,-20.5127,94.7687,209.3,30.1038,38.5096,19.9219,0.0,1,0,Evans-Ti/Mn-1992-D7aw
0.049,0.34,1.42,0.005,0.013,0.041,0.0042,0.009,170.0,21.0,1.0,150.0,500.0,2.0,0.374498,10.1612,1.81422,0.1598,-0.019765,0.0223953,0.00149491,0.0642484,0.0146557,0.0128486,0.00353015,436.0,529.0,31.6,78.8,-50.0,100.0,178.558,12.5158,12.914,69.2481,0.0,1,0,Evans-Mn-1977-Cht
0.03,0.45,0.78,0.013,0.01,0.0336,0.014,0.0095,180.0,23.0,1.0,250.0,0.0,0.0,0.309132,1.87829,0.411794,0.0514636,-0.267509,0.009,0.00047963,0.00488178,0.006,0.001,0.002,483.08,590.74,24.2456,71.8898,-20.0,48.0,223.03,-5.65927,54.5729,42.7859,0.0,1,0,SvenGret-1990-1Ch-2
0.059,0.3,1.44,0.006,0.01,0.0305,0.009,0.0065,180.0,23.0,1.0,250.0,0.0,0.0,0.135135,-0.730684,0.294514,-0.0553191,-0.135058,0.007,0.00204039,0.04012,0.004,0.001,0.005,335.76,446.408,33.6726,78.8857,-40.0,129.0,176.174,20.6001,2.44863,74.4722,0.0,1,0,SvenGret-1990-7Ch-4
0.12,0.43,0.86,0.011,0.014,0.0329,0.015,0.0054,180.0,23.0,1.0,250.0,0.0,0.0,-0.672487,1.94906,0.849348,0.09164,-0.00809865,0.005,0.000868037,0.00981399,0.005,0.003,0.003,404.688,560.979,35.5577,71.8767,-60.0,86.0,182.329,64.3072,34.5181,-6.87647,0.0,1,0,SvenGret-1990-13Ch-6
0.071,0.36,1.09,0.006,0.009,0.0418,0.0041,0.0071,170.0,21.0,1.0,200.0,0.0,0.0,-0.236999,0.41,-0.151767,0.0422387,0.162464,-0.0198755,-0.000673755,0.0234634,0.00565951,0.000972569,0.00707543,578.502,662.02,22.858,68.3279,-61.0,100.0,108.456,29.8018,1.91828,77.9823,0.0,1,0,JorgeEtAl-1993-Baw
0.08,0.62,1.83,0.013,0.014,0.0185,0.023,0.0067,700.0,32.0,4.8,200.0,0.0,0.0,1.51,0.05,0.01,0.01,0.03,0.02,0.0007,-0.00783973,-0.00413691,-0.00269354,0.0173813,515.0,737.0,26.0,48.0,0.0,35.0,193.648,75.1495,-38.0437,64.3621,0.0,1,1,Kluket-CuMnB-1994-7
0.1,0.31,1.37,0.02,0.028,0.0336,0.01,0.0099,550.0,28.0,3.6,100.0,0.0,0.0,0.08,0.06,0.02,0.01,0.15,0.013,0.001,0.03,0.02,0.01,0.01,498.0,621.0,16.0,70.0,16.0,70.0,178.112,-1.1619,18.9713,80.3671,0.0,1,1,Wats-1981-EWO
0.043,0.24,1.37,0.008,0.013,0.0422,0.0042,0.008,170.0,21.0,4.3,200.0,250.0,14.0,0.469983,7.43324,0.516337,0.208105,0.273996,-0.00836699,0.00129154,0.0127144,-0.00699843,0.00432654,0.00438568,405.0,500.0,31.8,80.6,-106.272,2.93541,192.633,39.9086,13.7362,49.4639,0.0,1,0,EvHtIp1979-4.3C
0.08,0.29,1.33,0.01,0.017,0.045,0.005,0.0095,650.0,33.0,3.3,300.0,600.0,0.75,0.032,0.03,0.43,0.05,0.053,0.01,0.000529352,0.015,0.0156913,0.0055725,0.00501288,701.0,766.0,22.0,52.0,-1.74957,100.946,206.497,-14.9493,78.8398,22.3462,0.0,1,1,Gar&K-1975-12mm-16ht
0.06,0.34,1.08,0.007,0.014,0.048,0.01,0.011,116.0,23.0,1.3,175.0,720.0,8.0,0.69,9.0,1.03,0.29,0.02,0.01,0.000423121,0.01,-0.00520384,0.0131524,-0.00135562,345.477,363.975,36.719,98.483,20.9284,275.575,210.0,39.0601,1.72325,78.6637,0.0,1,0,PantK-1990-w5.2
0.06,0.49,0.67,0.011,0.009,0.085,0.0042,0.008,500.0,32.0,2.0,250.0,690.0,10.0,0.21,2.63,1.06,0.243482,-0.093247,0.015,0.00108552,0.0348108,0.0106301,0.0101355,0.010587,469.0,592.0,27.0,61.7698,-75.6456,59.0734,203.537,16.3478,31.8497,49.9298,0.0,1,5,Chandel&-1985W2
0.12,0.14,1.34,0.002,0.008,0.0292,0.0042,0.0037,500.0,29.0,2.9,200.0,690.0,8.0,0.812987,2.23,1.0,0.31,0.586703,-0.0155458,0.000493969,0.02,-0.00686443,0.00673562,0.00678978,660.175,684.03,25.3,73.2,-52.0079,95.4908,193.665,30.9297,3.11984,71.8506,1.0,0,1,Icici&-1992-N1a
0.042,0.14,1.33,0.012,0.015,0.0735,0.0042,0.0236,300.0,28.0,1.96,150.0,690.0,10.0,0.26,2.39,1.21,0.015,0.0657787,0.0142914,0.000218569,-0.0114097,8e-07,1.6e-06,8e-07,490.031,585.318,24.6784,70.3062,-40.0,49.0,202.525,22.0713,67.4812,11.0639,0.0,1,2,Mart-Dd
0.061,0.32,0.27,0.022,0.016,0.069,0.0042,0.008,150.0,37.5,1.0,300.0,690.0,3.0,0.40755,2.2,1.2,0.0599472,-0.482455,0.0505932,0.00297087,0.0289533,0.0109153,0.00457816,0.0105648,537.0,648.0,22.0,65.0,-32.2214,177.395,220.0,4.12582,-46.0513,154.384,0.0,1,0,Wolst-1974-AM1
0.08,0.25,0.8,0.01,0.01,0.0422,0.0042,0.008,525.0,30.0,1.75,210.0,700.0,20.0,0.03,2.3,1.05,0.01,0.02,0.00528232,0.000630378,0.032814,2e-07,3e-07,1e-07,402.999,396.023,37.2873,91.3285,-30.0,170.0,212.128,105.018,-18.371,6.25518,0.0,1,1,Ditt-iatch3
0.073,0.34,0.64,0.008,0.007,0.045,0.0007,0.0063,170.0,21.0,1.0,200.0,250.0,14.0,0.0,0.0,0.0,0.0005,0.0,0.0005,0.0005,0.0005,0.0132394,0.00219109,0.00389154,334.526,421.93,33.8561,84.4516,-70.0,28.0,211.688,-6.26249,33.337,78.0128,0.0,0,0,EvansLetter-Ao+ch2
0.063,0.31,0.65,0.006,0.009,0.0472,0.0038,0.0085,170.0,21.0,1.0,200.0,250.0,14.0,0.88,0.0,0.0,0.0005,0.0,0.0005,0.0005,0.0005,0.00999652,0.0100874,0.010825,405.674,490.527,25.7935,78.6407,-63.0,100.0,161.631,1.2039,46.3624,66.7477,0.0,0,0,EvansLetter-A+1Nich1
0.071,0.26,1.48,0.007,0.012,0.046,0.0005,0.0087,170.0,21.0,1.0,200.0,250.0,14.0,2.28,0.0,0.0,0.0005,0.0,0.0005,0.0005,0.0005,0.00888241,0.000250276,0.00906425,512.0,605.0,21.7,75.0,-22.1493,124.77,229.128,8.44126,-11.3185,109.8,0.0,0,0,EvansLetterCo+2Ni
0.068,0.27,1.46,0.008,0.007,0.0436,0.0034,0.0078,170.0,21.0,1.0,200.0,250.0,14.0,2.24,0.0,0.0,0.0005,0.0,0.0005,0.0005,0.0005,0.00596586,0.0210592,0.00243786,380.794,467.535,32.7556,77.954,-102.0,28.0,203.729,-13.8382,43.4785,69.5947,0.0,0,0,EvansLetterC+2Nich2
0.09,0.34,0.89,0.008,0.016,0.0396,0.0042,0.0096,450.0,30.0,2.0,200.0,760.0,2.0,0.17,8.2,0.94,0.02,0.436856,-0.0205744,-0.000416367,0.005,0.00988389,0.00712025,-0.00889059,660.0,742.475,23.872,68.9621,-116.614,-35.2749,218.972,68.4339,-16.7252,41.8195,0.0,1,1,Birmingham-MAX37