File: 4 - Dataset/clustering_weld_data_with_capped_outliers.csv
Carbon concentration (ppm),Silicon concentration (ppm),Manganese concentration (ppm),Heat input (kJ/mm),Interpass temperature (deg C),Type of weld,Sulphur concentration (ppm),Phosphorus concentration (ppm),Oxygen concentration (ppm),Nitrogen concentration (ppm),Current (A),Voltage (V),Post weld heat treatment temperature (deg C),Post weld heat treatment time (hours),AC or DC,Electrode positive or negative,Nickel concentration (ppm),Chromium concentration (ppm),Molybdenum concentration (ppm),Vanadium concentration (ppm),Copper concentration (ppm),Titanium concentration (ppm),Aluminium concentration (ppm),Boron concentration (ppm),Niobium concentration (ppm),Yield strength (MPa),Ultimate tensile strength (MPa),Elongation (%),Reduction of Area (%),Charpy temperature (deg C),Charpy impact toughness (J)
0.119205,0.493506,0.368687,0.23125,0.0,2,0.482759,0.28,0.659251,0.543396,0.235669,0.259843,0.907895,0.416667,0.0,1.0,0.468392,0.57716,0.743051,0.457401,0.477353,0.661366,0.645717,0.417948,0.511197,0.417506,0.322989,0.206386,0.084567,0.609631,0.701459
0.668874,0.337662,0.570707,1.0,0.0,1,0.310345,0.2,0.348946,0.279245,0.936306,0.370079,0.0,0.0,0.0,1.0,0.436638,0.457952,0.379015,0.42634,0.465324,0.419414,0.431468,0.573241,0.424748,0.40686,0.322989,0.450269,0.555726,0.45629,0.542651
0.470199,0.493506,0.348485,0.078125,0.0,0,0.0689655,0.08,0.313817,1.0,0.0356688,0.149606,1.0,0.333333,0.0,1.0,0.468392,0.925161,0.7325,0.830134,0.441663,0.418774,0.336567,0.505796,0.929847,0.513857,0.531738,0.61835,0.424083,0.548636,0.473329
0.311258,0.38961,0.550505,0.0625,0.0,0,0.137931,0.18,0.40281,0.135849,0.0700637,0.149606,0.0,0.0,0.0,1.0,0.512942,0.427871,0.56762,0.44599,0.682098,0.425292,0.482905,0.352411,0.404381,0.335979,0.27434,0.544842,0.55134,0.365651,0.521209
0.125828,0.376623,0.79798,0.0625,0.0,0,0.206897,0.22,0.339578,0.233962,0.0700637,0.149606,0.328947,0.583333,0.0,1.0,0.538229,0.468643,0.189256,0.387847,0.423005,0.36298,0.675528,0.363205,0.502604,0.463133,0.325539,0.62169,0.700698,0.180151,0.238543
0.635762,0.285714,0.540404,1.0,0.0,1,0.37931,0.22,0.141686,0.256604,0.936306,0.370079,0.0,0.0,0.0,1.0,0.436638,0.457417,0.378311,0.432164,0.579249,0.425292,0.474483,0.591702,0.424748,0.368839,0.283465,0.664409,0.652374,0.490203,0.851397
0.324503,0.519481,0.525253,0.0625,0.0,0,0.137931,0.12,0.350117,0.109434,0.0700637,0.149606,0.0,0.0,0.0,1.0,0.609682,0.381669,0.31368,0.371816,0.486168,0.465783,0.668278,0.707368,0.266263,0.450092,0.300157,0.600955,0.758366,0.234512,0.521209
0.198675,0.376623,0.414141,0.0625,0.0,0,0.241379,0.16,0.208431,0.162264,0.0828025,0.181102,0.0,0.0,0.0,1.0,0.391665,0.540012,0.708929,0.598269,0.439616,0.549377,0.404852,0.44439,0.477502,0.254773,0.188001,0.741717,0.743926,0.426646,0.735257
0.139073,0.545455,0.348485,0.1875,0.0,0,0.310345,0.3,0.364169,0.237736,0.0700637,0.149606,0.815789,0.0416667,0.0,1.0,0.423936,0.328812,0.380773,0.404557,0.441663,0.301633,0.345737,0.506031,0.352361,0.233481,0.178917,0.621177,0.884729,0.262358,0.650829
0.311258,0.272727,0.59596,0.0625,0.0,0,0.241379,0.08,0.380562,0.215094,0.0700637,0.149606,0.328947,0.583333,0.0,0.0,0.41441,0.454745,0.553119,0.423428,0.430528,0.425292,0.341435,0.494292,0.301981,0.396214,0.310239,0.438957,0.700698,0.414447,0.521209
0.331126,0.337662,0.651515,0.0625,0.0,0,0.206897,0.18,0.350117,0.290566,0.0700637,0.149606,0.328947,0.583333,0.0,0.0,0.41441,0.509805,0.377256,0.423428,0.430528,0.454027,0.341435,0.494292,0.301981,0.549822,0.389288,0.455569,0.676536,0.24976,0.521209
0.337748,0.714286,0.792929,0.65625,0.0,1,0.413793,0.26,0.0421546,0.10566,0.745223,0.322835,0.0,0.0,0.0,1.0,0.557303,0.457417,0.380773,0.44187,0.653226,0.7453,0.570713,0.494292,0.446766,0.361234,0.464511,0.677064,0.386592,0.460194,0.338141
0.298013,0.402597,0.181818,0.0625,0.0,0,0.275862,0.1,0.398126,0.169811,0.0700637,0.149606,0.763158,0.0833333,0.0,1.0,0.415716,0.473542,0.455345,0.423428,0.591082,0.42921,0.341435,0.494292,0.301981,0.107249,0.106244,0.743513,0.747814,0.265009,0.521209
0.238411,0.38961,0.353535,0.0625,0.0,0,0.206897,0.12,0.339578,0.233962,0.0700637,0.149606,0.763158,0.0833333,0.0,1.0,0.603564,0.535004,0.558714,0.51509,0.45171,0.531802,0.423876,0.197947,0.381928,0.236523,0.169992,0.870873,0.768352,0.213163,0.281813
0.317881,0.337662,0.368687,0.0625,0.0,0,0.241379,0.1,0.388759,0.233962,0.0700637,0.149606,0.0,0.0,0.0,1.0,0.588676,0.487514,0.491999,0.423428,0.358852,0.427904,0.341435,0.494292,0.301981,0.398876,0.370443,0.798203,0.455416,0.25586,0.521209
0.311258,0.25974,0.575758,0.0625,0.0,0,0.241379,0.08,0.368852,0.241509,0.0700637,0.149606,0.328947,0.583333,0.0,0.0,0.41441,0.454745,0.767672,0.423428,0.430528,0.425292,0.341435,0.494292,0.301981,0.504196,0.423712,0.433419,0.62338,0.274159,0.318426
0.192053,0.376623,0.181818,0.0625,0.0,0,0.206897,0.1,0.339578,0.233962,0.0700637,0.149606,0.763158,0.0833333,0.0,1.0,0.456957,0.345193,0.396098,0.162028,0.686575,0.602934,0.697414,0.480912,0.451479,0.187855,0.125368,0.826574,0.746606,0.243661,0.27618
0.317881,0.402597,0.378788,0.0625,0.0,0,0.206897,0.06,0.312646,0.203774,0.0700637,0.149606,0.0,0.0,0.0,1.0,0.67843,0.480516,0.638829,0.423234,0.64789,0.472314,0.341435,0.494292,0.301981,0.454122,0.419395,0.394563,0.474787,0.243661,0.521209
0.211921,0.376623,0.550505,0.0625,0.0,4,0.137931,0.08,0.336066,0.226415,0.0700637,0.149606,0.0,0.0,0.0,1.0,0.55101,0.254179,0.315349,0.250586,0.347288,0.455334,0.324229,0.70572,0.238673,0.228192,0.168763,0.617507,0.802749,0.210114,0.521209
0.245033,0.545455,0.575758,0.0625,0.0,0,0.103448,0.14,0.322014,0.10566,0.0700637,0.149606,0.0,0.0,0.0,1.0,0.463627,0.0172962,0.31251,0.227395,0.317629,0.732238,0.765844,0.370728,0.134371,0.409126,0.208727,0.775994,0.799847,0.219263,0.318426
0.536424,0.12987,0.232323,0.359375,0.0,1,0.0344828,0.06,0.142857,0.0188679,0.490446,0.275591,0.907895,0.333333,1.0,0.0,0.309578,0.577694,0.739534,0.946614,0.484676,0.497374,0.540598,0.624404,0.438779,0.589624,0.473436,0.426373,0.538336,0.365651,0.290262
0.331126,0.688312,0.530303,0.0625,0.0,0,0.103448,0.12,0.339578,0.101887,0.0700637,0.149606,0.328947,0.583333,0.0,1.0,0.351252,0.297615,0.475728,0.423428,0.315675,0.468395,0.931704,0.494292,0.301981,0.347546,0.259241,0.710289,0.72486,0.157776,0.372661
0.139073,0.272727,0.444444,0.28125,0.0,1,0.482759,0.44,0.339578,0.449057,0.0700637,0.149606,0.789474,0.0875,0.0,1.0,0.41441,0.454745,0.377256,0.430223,0.497337,0.457946,0.439,0.580225,0.33355,0.190136,0.147935,0.718595,0.646333,0.325123,0.693001
0.337748,0.701299,0.444444,0.0769531,0.0,0,0.310345,0.16,0.208431,0.116981,0.0955414,0.181102,0.263158,0.0416667,0.0,1.0,0.41441,0.454745,0.377256,0.422457,0.430528,0.488633,0.346313,0.314003,0.298474,0.349067,0.263065,0.66599,0.700698,0.440983,0.589881
0.390728,0.25974,0.39899,0.0625,0.0,0,0.206897,0.22,0.47541,0.50566,0.0828025,0.354331,0.986842,0.333333,0.0,1.0,0.627637,0.940129,0.728982,0.868961,0.328808,0.359757,0.165549,0.494292,0.691328,0.543739,0.492561,0.366971,0.504986,0.451044,0.318426
0.807947,0.415584,0.181818,0.0625,0.0,0,0.241379,0.12,0.339578,0.233962,0.0700637,0.149606,0.763158,0.0833333,0.0,1.0,0.577404,0.233698,0.386253,0.361047,0.350954,0.507068,0.428406,0.213241,0.554004,0.28367,0.212067,0.74905,0.712779,0.304656,0.419817
0.801325,0.363636,0.469697,0.15625,0.0,1,0.551724,0.46,0.339578,0.29434,0.0700637,0.149606,0.0,0.0,0.0,1.0,0.41441,0.454745,0.377256,0.422457,0.430528,0.418761,0.424365,0.489139,0.298474,0.416898,0.332934,0.732438,0.616131,0.284467,0.344377
0.10596,0.571429,0.353535,0.1875,0.0,0,0.310345,0.32,0.348946,0.324528,0.0700637,0.149606,0.815789,0.0416667,0.0,1.0,0.423936,0.585517,0.489808,0.670948,0.441663,0.414551,0.290776,0.208508,0.259313,0.338421,0.27709,0.768224,0.588422,0.478574,0.293081
0.536424,0.415584,0.964646,0.0625,0.0,0,0.241379,0.18,0.245902,0.2,0.0828025,0.181102,0.0,0.0,0.0,1.0,0.552016,0.640478,0.75132,0.658164,0.524438,0.5755,0.365826,0.42111,0.450838,0.539176,0.472249,0.397208,0.521398,0.304656,0.419817
0.403974,0.428571,0.383838,0.109375,0.0,0,0.103448,0.16,0.395785,1.0,0.0828025,0.181102,1.0,0.333333,0.0,1.0,0.430287,0.925161,0.739534,0.907787,0.436095,0.549377,0.434122,0.571956,0.859695,0.518458,0.544656,0.235545,0.443614,0.609593,0.418366
0.668874,0.337662,0.560606,1.0,0.0,1,0.448276,0.52,0.339578,0.233962,0.936306,0.417323,0.0,0.0,0.0,1.0,0.432827,0.457952,0.379015,0.606883,0.475068,0.49713,0.482905,0.576057,0.33355,0.40686,0.327291,0.289447,0.519483,0.280348,0.487424
0.264901,0.337662,0.550505,0.0625,0.0,0,0.206897,0.14,0.351288,0.173585,0.0700637,0.149606,0.763158,0.0833333,0.0,1.0,0.718894,0.526082,0.48942,0.423428,0.473364,0.467089,0.341435,0.494292,0.301981,0.198501,0.169992,0.782275,0.72486,0.121671,0.318426
0.602649,0.337662,0.570707,0.421875,0.0,1,0.517241,1.0,0.339578,0.233962,0.681529,0.338583,0.0,0.0,0.0,1.0,0.458866,0.460625,0.386049,0.432164,0.569714,0.558,0.482905,0.262937,0.33355,0.24869,0.245617,0.483256,0.446997,0.259376,0.266022
0.331126,0.688312,0.530303,0.0625,0.0,0,0.103448,0.12,0.339578,0.116981,0.0700637,0.149606,0.328947,0.583333,0.0,1.0,0.393816,0.417094,0.367449,0.569093,0.348582,0.468395,0.931704,0.817702,0.270092,0.347546,0.259241,0.710289,0.72486,0.237709,0.521891
0.10596,0.285714,0.717172,0.25,0.0,0,0.206897,0.2,0.339578,0.233962,0.0700637,0.149606,0.0,0.0,0.0,1.0,0.583938,0.321157,0.472476,0.315254,0.509746,0.602524,0.541168,0.906686,0.205826,0.117808,0.107251,0.814173,0.829213,0.313805,0.521209
0.324503,0.519481,0.489899,0.292969,0.0,1,0.37931,0.32,0.406323,0.150943,0.55414,0.291339,0.263158,0.0416667,0.0,1.0,0.41441,0.454745,0.377256,0.422457,0.430528,0.477817,0.5512,0.24966,0.298474,0.200022,0.157243,0.776737,0.700698,0.361704,0.608171
0.602649,0.337662,0.570707,0.421875,0.0,1,0.517241,1.0,0.339578,0.233962,0.681529,0.338583,0.328947,0.0833333,0.0,1.0,0.458866,0.460625,0.386049,0.432164,0.569714,0.345226,0.482905,0.543301,0.33355,0.256294,0.254139,0.649377,0.543645,0.310488,0.449994
0.0927152,0.337662,0.212121,0.0625,0.0,0,0.172414,0.1,0.339578,0.233962,0.0700637,0.149606,0.763158,0.0833333,0.0,1.0,0.724355,0.0,0.0,0.0815872,0.575667,0.838828,0.681815,0.483963,0.0848837,0.168084,0.103694,0.854261,0.797346,0.213163,0.264914
0.304636,0.350649,0.383838,0.0625,0.0,0,0.241379,0.1,0.306792,0.218868,0.0700637,0.149606,0.763158,0.0833333,0.0,1.0,0.829303,0.513503,0.348027,0.423428,0.528119,0.538927,0.341435,0.494292,0.301981,0.171125,0.131743,0.798887,0.758687,0.25586,0.521209
0.271523,0.246753,0.368687,0.109375,0.0,0,0.0344828,0.08,0.384075,0.864151,0.00127389,0.181102,0.973684,0.333333,0.0,1.0,0.598583,0.898433,0.704361,0.888374,0.436095,0.549377,0.434122,0.382477,0.536993,0.61189,0.521374,0.506509,0.59473,0.20443,0.16506
0.470199,0.233766,0.141414,0.21875,0.0,5,0.275862,0.22,0.149883,0.233962,0.490446,0.322835,0.907895,0.416667,0.0,1.0,0.481093,0.598008,0.746569,0.589513,0.815567,0.887445,0.531687,0.637856,0.477121,0.349067,0.310239,0.649377,0.724755,0.304656,0.442349