File: 4 - Dataset/clustering_weld_data.csv
Carbon concentration (ppm),Silicon concentration (ppm),Manganese concentration (ppm),Sulphur concentration (ppm),Phosphorus concentration (ppm),Nickel concentration (ppm),Chromium concentration (ppm),Molybdenum concentration (ppm),Vanadium concentration (ppm),Copper concentration (ppm),Oxygen concentration (ppm),Titanium concentration (ppm),Nitrogen concentration (ppm),Aluminium concentration (ppm),Boron concentration (ppm),Niobium concentration (ppm),Current (A),Voltage (V),AC or DC,Electrode positive or negative,Heat input (kJ/mm),Interpass temperature (deg C),Type of weld,Post weld heat treatment temperature (deg C),Post weld heat treatment time (hours),Yield strength (MPa),Ultimate tensile strength (MPa),Elongation (%),Reduction of Area (%),Charpy temperature (deg C),Charpy impact toughness (J)
370.0,3000.0,6500.0,80.0,120.0,0.0,,,,,,,,,,,170.0,21.0,0.0,1,1.0,200.0,0,250.0,14.0,392.0,466.0,31.9,80.6,,
490.0,3300.0,18500.0,60.0,140.0,5100.0,,,,,,,,,,,170.0,21.0,0.0,1,1.0,200.0,0,250.0,14.0,547.0,618.0,26.0,74.9,,
440.0,3100.0,9600.0,60.0,130.0,23800.0,,,,,,,,,,,170.0,21.0,0.0,1,1.0,200.0,0,0.0,0.0,,,,,-59.0,100.0
510.0,3600.0,17900.0,70.0,130.0,34200.0,,,,,,,,,,,170.0,21.0,0.0,1,1.0,200.0,0,580.0,2.0,662.0,745.0,24.0,67.5,,
760.0,3400,13600,50.0,110.0,,,,,,476.0,5.0,57.0,150.0,,,170.0,21.0,0.0,1,1.0,200.0,0,250.0,14.0,437.0,527.0,24.6,78.9,,
760.0,3700.0,13600,50.0,90.0,,,,,,422.0,36.0,53.0,190.0,,,170.0,21.0,0.0,1,1.0,200.0,0,0.0,0.0,,,,,-86.0,28.0
710,3900.0,13600,50.0,90.0,,,,,,381.0,92.0,52.0,160.0,,,170.0,21.0,0.0,1,1.0,200.0,0,0.0,0.0,,,,,-56.0,100.0
740.0,4100.0,13600,50.0,50.0,,,,,,418.0,260.0,49.0,320.0,,,170.0,21.0,0.0,1,1.0,200.0,0,250.0,14.0,514.0,570.0,23.6,77.0,,
710,5200.0,14400.0,50.0,50.0,,,,,,466.0,460.0,67.0,300.0,,,170.0,21.0,0.0,1,1.0,200.0,0,0.0,0.0,,,,,-65.0,28.0
890.0,2200.0,10500.0,70.0,130.0,,90000.0,10400.0,2300.0,,592.0,,460.0,,64.0,700.0,180.0,34.0,0.0,1,1.0,175.0,0,750.0,8.0,643.0,777.0,15.7,60.2,59.0,100.0
440.0,3500.0,14300.0,70.0,140.0,,0.0,,,,,,,,,,170.0,21.0,0.0,1,1.0,200.0,0,250.0,14.0,468.0,551.0,29.4,78.7,,
430.0,3100.0,9500.0,70.0,100.0,,5300.0,,,,,,,,,,170.0,21.0,0.0,1,1.0,200.0,0,250.0,14.0,494.0,545.0,29.6,77.0,,
520.0,3300.0,18100.0,70.0,130.0,,11000.0,,,,,,,,,,170.0,21.0,0.0,1,1.0,200.0,0,580.0,2.0,592.0,671.0,22.8,72.0,28.0,100.0
730.0,3300.0,13900,70.0,80.0,,,,5.0,,427.0,39.0,66.0,20.0,5.0,5.0,170.0,21.0,0.0,1,1.0,200.0,0,250.0,14.0,475.0,536.0,33.4,80.7,,
760.0,3700.0,13600,50.0,90.0,,,,5.0,,422.0,36.0,54.0,190.0,5.0,5.0,170.0,21.0,0.0,1,1.0,200.0,0,250.0,14.0,485.0,549.0,31.4,79.8,,
790.0,5700,13200.0,40.0,80.0,,,,5.0,,422.0,38.0,48.0,610.0,5.0,5.0,170.0,21.0,0.0,1,1.0,200.0,0,580.0,2.0,443.0,550.0,29.4,76.0,-52.0,100.0
760.0,3400,10100.0,70.0,70.0,,,,215.0,,426.0,37.0,75.0,5.0,5.0,5.0,170.0,21.0,0.0,1,1.0,200.0,0,250.0,14.0,456.0,534.0,25.0,79.6,,
770.0,2600.0,13600,70.0,70.0,,,,425,,410.0,29.0,79.0,5.0,5.0,5.0,170.0,21.0,0.0,1,1.0,200.0,0,0.0,0.0,,,,,-70.0,100.0
760.0,2500.0,17200.0,50.0,80.0,,,,605.0,,405.0,25.0,86.0,5.0,5.0,5.0,170.0,21.0,0.0,1,1.0,200.0,0,580.0,2.0,521.0,597.0,24.4,74.0,-44.0,100.0
770.0,3500.0,10200.0,70.0,50.0,,,,4.0,,399.0,41.0,75.0,5.0,5.0,5.0,170.0,21.0,0.0,1,1.0,200.0,0,250.0,14.0,443.0,522.0,31.1,77.0,,
790.0,3300.0,13700,70.0,60.0,,,,4.0,,417.0,34.0,97.0,5.0,5.0,105.0,170.0,21.0,0.0,1,1.0,200.0,0,0.0,0.0,,,,,-55.0,100.0
780.0,3000.0,17600.0,70.0,70.0,,,,4.0,,433.0,32.0,110.0,5.0,5.0,230.0,170.0,21.0,0.0,1,1.0,200.0,0,580.0,2.0,553.0,627.0,22.0,76.8,-31.0,100.0
430.0,3000.0,6900,60.0,70.0,,,,,,,,,,,,170.0,21.0,0.0,1,1.0,200.0,0,580.0,2.0,373.0,448.0,34.4,83.0,-70.0,9.0
450.0,2900.0,18300.0,50.0,80.0,,,,,,,,,,,,170.0,21.0,0.0,1,1.0,200.0,0,580.0,2.0,444.0,525.0,29.8,79.9,-60.0,76.0
660.0,3500.0,13600,70.0,80.0,,,,,,,,,,,,170.0,21.0,0.0,1,1.0,200.0,0,580.0,2.0,455.0,540.0,31.2,77.9,-40.0,165.0
950.0,3600.0,10500.0,70.0,80.0,,,,,,,,,,,,170.0,21.0,0.0,1,1.0,200.0,0,580.0,2.0,435.0,546.0,34.0,77.0,-20.0,165.0
1470.0,3600.0,10200.0,70.0,70.0,,,,,,,,,,,,170.0,21.0,0.0,1,1.0,200.0,0,580.0,2.0,482.0,576.0,29.4,76.9,-70.0,17.0
740.0,3300.0,14500.0,50.0,50.0,,,,,,408.0,6.0,90.0,,,,170.0,21.0,0.0,1,1.0,200.0,4,0.0,0.0,,,,,-60.0,28.0
680.0,3500.0,15100.0,60.0,60.0,,,,,,351.0,100.0,87.0,,,,170.0,21.0,0.0,1,1.0,200.0,4,0.0,0.0,,,,,-47.0,100.0
760.0,3800.0,6700.0,90.0,70.0,,,,5.0,,362.0,160.0,70.0,5.0,5.0,5.0,170.0,21.0,0.0,1,1.0,200.0,0,250.0,14.0,410.0,494.0,31.4,78.9,,
780.0,4300.0,11000.0,70.0,50.0,,,,5.0,,329.0,190.0,73.0,5.0,5.0,5.0,170.0,21.0,0.0,1,1.0,200.0,0,0.0,0.0,,,,,-50.0,100.0
770.0,2800,17900.0,70.0,60.0,,,,5.0,,439.0,7.0,82.0,5.0,5.0,5.0,170.0,21.0,0.0,1,1.0,200.0,0,580.0,2.0,381.0,500.0,30.4,78.9,-49.0,100.0
700,4500.0,15000.0,50.0,60.0,,,,,,294.0,550.0,75.0,,,,170.0,21.0,0.0,1,1.0,200.0,0,0.0,0.0,530.0,597.0,25.0,81.6,,
490.0,3400,14200.0,50.0,130.0,,,,,,410.0,,90.0,,,,170.0,21.0,0.0,1,1.0,150.0,0,0.0,0.0,468.0,551.0,29.4,78.7,-53.0,100.0
990.0,1700,10100.0,70.0,120.0,800.0,93000.0,10000.0,2000.0,,634.0,,539.0,,,460.0,180.0,34.0,0.0,1,1.0,175.0,0,750.0,8.0,617.0,762.0,18.4,61.2,,
600.0,4400.0,16000.0,100.0,180.0,300.0,,100.0,,200.0,395.0,,102.0,,,,170.0,21.0,0.0,1,1.8,100.0,0,250.0,16.0,550.0,615.0,,,,
320.0,4500.0,12700.0,80.0,100.0,,,,,,321.0,130.0,94.0,90.0,,,180.0,23.0,0.0,1,1.0,250.0,0,0.0,0.0,440.0,,,,-20.0,38.0
590.0,3300.0,10900.0,80.0,100.0,,,,,,310.0,100.0,64.0,70.0,,,180.0,23.0,0.0,1,1.0,250.0,0,0.0,0.0,430.0,,,,-40.0,86.0
890.0,3500.0,11800.0,110.0,100.0,,,,,,404.0,120.0,73.0,80.0,,,180.0,23.0,0.0,1,1.0,250.0,0,0.0,0.0,450.0,,,,-60.0,60.0
1200.0,4300.0,8600.0,110.0,140.0,,,,,,329.0,150.0,54.0,50.0,,,180.0,23.0,0.0,1,1.0,250.0,0,0.0,0.0,445.0,,,,20.0,190.0
530.0,7000.0,12800.0,130.0,150.0,300.0,1000.0,,150.0,,622.0,80.0,71.0,120.0,2.0,20.0,280.0,30.0,0.0,1,2.8,200.0,2,200.0,14.0,,557.0,,,,
720.0,3500.0,10500.0,50.0,70.0,,7900.0,,,,421.0,37.0,73.0,,,,170.0,21.0,0.0,1,1.0,200.0,0,580.0,2.0,,,,,-68.0,100.0
500.0,3500.0,7900.0,70.0,110.0,13900,5600,2800,,9600.0,210.0,40.0,80.0,200.0,15.0,330.0,640.0,34.0,0.0,1,2.0,200.0,1,0.0,0.0,678.0,,,,,
800.0,6800,19400.0,130.0,150.0,15400.0,500.0,100.0,100.0,8500.0,132.0,290.0,55.0,270.0,44.0,,700.0,32.0,0.0,1,4.8,200.0,1,0.0,0.0,546.0,869.0,21.0,28.0,55.0,35.0
700,4700.0,8500.0,130.0,240.0,0.0,0.0,0.0,100.0,0.0,,80.0,120.0,43.0,,0.0,,,0.0,1,1.8,150.0,0,0.0,0.0,478.5,569.3,22.1,72.4,,
1000.0,1200.0,12000.0,130.0,240.0,0.0,0.0,0.0,0.0,0.0,,0.0,89.0,42.0,,60.0,,,0.0,1,1.7,200.0,1,600.0,2.3,390.1,487.6,37.0,77.0,,
860,2800,16800.0,230.0,200.0,,,100.0,100.0,2300.0,487.0,,77.0,,,,625.0,75.36,0.0,1,4.6,200.0,3,0.0,0.0,389.0,564.0,28.0,69.0,-20.0,79.0
820.0,1800.0,7500.0,140.0,200.0,,,200.0,50.0,2200.0,381.0,,109.0,,,,625.0,72.24,0.0,1,4.4,200.0,3,0.0,0.0,349.0,456.0,36.0,72.0,-50.0,117.0
960.0,1300.0,7300.0,180.0,220.0,,,4300.0,100.0,1400,373.0,,81.0,,,,625.0,72.24,0.0,1,4.4,200.0,3,0.0,0.0,353.0,491.0,32.0,67.0,-60.0,14.0
440.0,3200.0,6200.0,70.0,70.0,,,,,,,,,,,,,,0.0,1,0.6,200.0,0,250.0,14.0,445.0,496.0,31.0,79.7,,
360.0,2400.0,8900.0,80.0,100.0,,,,,,,,,,,,,,0.0,1,2.2,200.0,0,0.0,0.0,,,,,-46.0,100.0
1150.0,2500.0,13500.0,120.0,100.0,800.0,200.0,90.0,30.0,,260.0,,94.0,,,170.0,850.0,35.0,0.0,1,7.9,300.0,1,0.0,0.0,465.0,587.0,,69.0,,
420.0,3200.0,10200.0,70.0,120.0,,,,,,,,,,,,170.0,21.0,0.0,1,1.0,240.0,0,0.0,0.0,427.0,499.0,34.6,80.5,-42.0,100.0
1300.0,2700.0,14600.0,110.0,260.0,680.0,620.0,2600.0,1030.0,1050.0,,60.0,,150.0,,50.0,850.0,38.0,0.0,1,7.6,300.0,1,0.0,0.0,641.0,,32.0,50.0,,
800.0,2900.0,13300.0,100.0,170.0,320.0,300.0,4300.0,500.0,530.0,450.0,50.0,95.0,100.0,,150.0,650.0,33.0,0.0,1,3.3,300.0,1,600.0,0.75,701.0,766.0,22.0,52.0,,
1100.0,3800.0,15000.0,290.0,,,,0.0,50.0,,,0.0,,,,0.0,650.0,33.0,0.0,1,3.3,300.0,1,600.0,0.75,524.0,596.0,29.0,64.0,,
900.0,3700.0,10300.0,40.0,100.0,500.0,88000.0,10300.0,2500.0,100.0,470.0,100.0,370.0,100.0,,800.0,180.0,23.0,0.0,1,1.3,175.0,0,0.0,0.0,,,,,,
700,2300.0,10000.0,20.0,60.0,5800.0,83000.0,9300.0,2400.0,100.0,460.0,100.0,250.0,100.0,,340.0,116.0,23.0,0.0,1,1.3,175.0,0,760.0,2.0,,,,,,
1000.0,4000.0,9800.0,40.0,80.0,1700,87000.0,9800.0,2200.0,300.0,410.0,0.01,420.0,0.01,,300.0,145.0,21.0,0.0,1,1.2,200.0,0,750.0,2.0,,,,,-20.0,8.0
1200.0,2400.0,5300.0,10.0,100.0,1300.0,86100.0,10300.0,2000.0,900.0,,20.0,430.0,0.013,10.0,,285.0,28.5,0.0,1,1.3,177.0,7,746.0,4.0,654.0,767.0,20.0,62.0,,
900.0,2400.0,6800,130.0,60.0,2000.0,22200,10300.0,,,520.0,,,100.0,,,500.0,30.0,0.0,1,3.6,200.0,6,690.0,10.0,535.0,627.0,23.0,,-40.0,81.0
1400,1800.0,7500.0,20.0,50.0,,23000.0,10100.0,2700.0,,256.0,,21.0,,,200.0,500.0,29.0,1.0,0,2.9,200.0,1,690.0,8.0,,770.0,,,-20.0,80.0
840.0,3000.0,5400.0,50.0,80.0,360.0,22000.0,10500.0,,350,660.0,,66.0,,,,,,0.0,1,2.4,175.0,1,690.0,2.33,,,,,0.0,118.0
700,800.0,9800.0,100.0,100.0,2700.0,20700.0,10700.0,150.0,,891.0,,97.0,,,,300.0,28.0,0.0,1,2.04,150.0,2,690.0,10.0,440.0,540.0,24.0,67.0,0.0,117.0
430.0,1200.0,8600.0,110.0,170.0,2000.0,20100.0,9300.0,200.0,,922.0,,123.0,,,,300.0,20.0,0.0,1,2.08,150.0,2,690.0,10.0,505.0,600.0,19.0,69.0,30.0,65.0
740.0,2700.0,11100,90.0,240.0,1700,23000.0,9600.0,180.0,,556.0,,113.0,,,,290.0,29.0,0.0,1,2.0,150.0,2,690.0,10.0,595.0,675.0,24.0,69.0,-70.0,3.0
550.0,3700.0,8200.0,210.0,80.0,860,25000.0,9900.0,100.0,5100.0,694.0,50.0,160.0,130.0,,,,,0.0,1,3.6,177.0,3,0.0,0.0,740.0,901.0,15.0,41.8,,
440.0,400.0,4500.0,140.0,170.0,,23000.0,,,,1650.0,,,,,,150.0,37.5,0.0,1,1.0,300.0,0,690.0,3.0,392.0,524.0,22.0,67.0,,
800.0,2500.0,8000.0,100.0,100.0,300.0,23000.0,10500.0,100.0,200.0,,,,,,,525.0,30.0,0.0,1,1.75,210.0,1,700.0,20.0,507.0,613.0,,,,
800.0,2500.0,8000.0,100.0,100.0,300.0,23000.0,10500.0,100.0,200.0,,,,,,,525.0,30.0,0.0,1,1.75,210.0,1,700.0,20.0,504.0,612.0,,,-30.0,170.0
750.0,4700.0,13100.0,140.0,200.0,0.0,0.0,0.0,0.0,0.0,465.0,,49.0,190.0,,0.0,450.0,30.0,,1,2.025,250.0,1,200.0,1.0,405.0,497.0,31.6,76.0,,
660.0,8000.0,11200,170.0,210.0,0.0,0.0,0.0,0.0,0.0,774.0,,26.0,330.0,,0.0,550.0,30.0,,1,2.475,250.0,1,200.0,1.0,455.0,558.0,28.2,69.0,,
650.0,2600.0,6100.0,70.0,70.0,21400.0,0.0,0.0,5.0,0.0,488.0,5.0,86.0,5.0,5.0,5.0,,,,0,1.0,200.0,0,250.0,14.0,443.0,528.0,32.4,76.0,-65.0,100.0
650.0,3000.0,6200.0,70.0,90.0,0.0,0.0,0.0,5.0,10300.0,519.0,4.0,72.0,5.0,5.0,5.0,,,,0,1.0,200.0,0,250.0,14.0,439.0,509.0,31.6,78.9,-87.0,28.0
780.0,2600.0,6200.0,70.0,50.0,0.0,16000.0,0.0,5.0,0.0,472.0,29.0,100.0,5.0,5.0,5.0,,,,0,1.0,200.0,0,250.0,14.0,509.0,596.0,17.0,74.0,-8.0,100.0
760.0,2800,15300.0,80.0,60.0,0.0,0.0,2500.0,5.0,0.0,444.0,5.0,84.0,5.0,5.0,5.0,,,,0,1.0,200.0,0,250.0,14.0,474.0,570.0,20.4,77.0,-61.0,28.0
760.0,2500.0,14800.0,80.0,60.0,9500.0,0.0,0.0,5.0,0.0,417.0,33.0,81.0,5.0,5.0,5.0,,,,0,1.0,200.0,0,250.0,14.0,498.0,551.0,27.2,78.9,-62.0,100.0
760.0,2700.0,14800.0,70.0,80.0,0.0,0.0,0.0,5.0,5300.0,454.0,22.0,81.0,5.0,5.0,5.0,,,,0,1.0,200.0,0,250.0,14.0,495.0,557.0,27.6,78.9,-93.0,28.0
1800.0,3900.0,8800.0,80.0,170.0,1800.0,102000.0,9400.0,2800,,327.0,,103.0,,,50.0,450.0,30.0,,1,2.0,200.0,1,760.0,2.0,,,,,,