File: 4 - Dataset/clustering_weld_data_removed_outliers.csv
Carbon concentration (ppm),Silicon concentration (ppm),Manganese concentration (ppm),Heat input (kJ/mm),Interpass temperature (deg C),Type of weld,Sulphur concentration (ppm),Phosphorus concentration (ppm),Oxygen concentration (ppm),Nitrogen concentration (ppm),Current (A),Voltage (V),Post weld heat treatment temperature (deg C),Post weld heat treatment time (hours),AC or DC,Electrode positive or negative,Nickel concentration (ppm),Chromium concentration (ppm),Molybdenum concentration (ppm),Vanadium concentration (ppm),Copper concentration (ppm),Titanium concentration (ppm),Aluminium concentration (ppm),Boron concentration (ppm),Niobium concentration (ppm),Yield strength (MPa),Ultimate tensile strength (MPa),Elongation (%),Reduction of Area (%),Charpy temperature (deg C),Charpy impact toughness (J)
0.293333,0.511111,0.0780142,0.105263,0.0,0,0.4375,0.0731707,0.864407,0.193966,0.0,0.0,0.0,0.0,0.0,1.0,0.634151,0.131062,0.396417,0.368504,0.326782,0.23487,0.402708,0.503464,0.343927,0.434739,0.482454,0.455267,0.470182,0.464433,0.409731
0.533333,0.0888889,0.404255,1.0,0.0,3,0.625,0.341463,0.528249,0.24569,1.0,1.0,0.0,0.0,0.0,1.0,0.234447,0.305617,0.328566,0.389969,0.364403,0.642184,0.51887,0.283687,0.437916,0.288538,0.313673,0.664722,0.425569,0.711759,0.515296
0.233333,0.488889,0.319149,0.105263,0.0,0,0.3125,0.097561,0.714689,0.24569,0.0,0.0,0.763158,0.0833333,0.0,1.0,0.421085,0.283507,0.253024,0.270687,0.380833,0.155858,0.55916,0.491502,0.41795,0.342289,0.33745,0.737603,0.63958,0.496693,0.562523
0.22,0.4,0.0851064,0.105263,0.0,0,0.375,0.097561,0.810734,0.228448,0.0,0.0,0.328947,0.583333,0.0,0.0,0.438014,0.244673,0.315284,0.368504,0.514152,0.299869,0.402708,0.503464,0.343927,0.34101,0.334478,0.596699,0.584456,0.206354,0.209711
0.32,0.4,0.879433,0.105263,0.0,0,0.3125,0.0731707,0.754237,0.383621,0.0,0.0,0.763158,0.0833333,0.0,1.0,0.498162,0.290954,0.450845,0.368279,0.19558,0.27944,0.402708,0.503464,0.494556,0.515062,0.526181,0.421782,0.516361,0.545083,0.409731
0.253333,0.355556,0.070922,0.105263,0.0,0,0.375,0.0731707,0.878531,0.224138,0.0,0.0,0.328947,0.583333,0.0,0.0,0.438014,0.244673,0.315284,0.368504,0.498661,0.229298,0.402708,0.503464,0.343927,0.307735,0.289896,0.601557,0.522847,0.37303,0.409731
0.306667,0.288889,0.680851,0.105263,0.0,0,0.375,0.0487805,0.70904,0.258621,0.0,0.0,0.328947,0.583333,0.0,0.0,0.820726,0.244673,0.315284,0.368504,0.240472,0.281297,0.402708,0.503464,0.343927,0.444673,0.41324,0.548111,0.584456,0.378406,0.409731
0.186667,0.466667,0.0780142,0.105263,0.0,0,0.3125,0.0731707,0.714689,0.24569,0.0,0.0,0.763158,0.0833333,0.0,1.0,0.304145,0.305585,0.37337,0.305814,0.194647,0.228166,0.365606,0.536945,0.357455,0.301336,0.285438,0.698733,0.581213,0.38916,0.168041
0.0866667,0.422222,0.304965,0.105263,0.0,0,0.3125,0.146341,0.714689,0.24569,0.0,0.0,0.763158,0.0833333,0.0,1.0,0.435254,0.28392,0.489992,0.202905,0.212614,0.11211,0.554135,0.253195,0.428862,0.396041,0.390949,0.586981,0.522847,0.523576,0.409731
0.306667,0.488889,0.595745,0.105263,0.0,0,0.1875,0.170732,0.875706,0.155172,0.0,0.0,0.0,0.0,0.0,1.0,0.783644,0.311365,0.642974,0.503683,0.274984,0.229298,0.515487,0.483118,0.297462,0.506572,0.610056,0.354412,0.246128,0.399913,0.209711
0.533333,0.0888889,0.404255,1.0,0.0,3,0.625,0.341463,0.528249,0.24569,1.0,1.0,0.0,0.0,0.0,1.0,0.647101,0.3834,0.328566,0.389969,0.364403,0.417357,0.382898,0.580053,0.410196,0.288538,0.313673,0.664722,0.425569,0.38916,0.173597
0.286667,0.511111,0.0851064,0.105263,0.0,0,0.1875,0.0,0.740113,0.241379,0.0,0.0,0.328947,0.583333,0.0,1.0,0.58174,0.29748,0.355436,0.368053,0.191505,0.290583,0.402708,0.503464,0.343927,0.321813,0.328534,0.696304,0.53906,0.632312,0.689782
0.28,0.577778,0.404255,0.105263,0.0,0,0.25,0.121951,0.850282,0.275862,0.0,0.0,0.0,0.0,0.0,1.0,0.70004,0.452017,0.406729,0.252361,0.289121,0.281297,0.324531,0.639368,0.431433,0.274408,0.336248,0.628529,0.565459,0.819292,0.409731
0.253333,0.6,0.702128,0.105263,0.0,0,0.3125,0.121951,0.316384,0.625,0.0,0.0,0.0,0.0,0.0,1.0,0.277484,0.343269,0.411598,0.645755,0.308482,0.777146,0.713794,0.487184,0.396637,0.506103,0.502404,0.47037,0.555273,0.572551,0.315141
0.326667,0.555556,0.921986,0.105263,0.0,0,0.25,0.0731707,0.446328,0.258621,0.0,0.0,0.763158,0.0833333,0.0,1.0,0.61728,0.419104,0.598227,0.368504,0.351452,0.693576,0.402708,0.503464,0.343927,0.413958,0.448905,0.601557,0.555273,0.383783,0.409731
0.413333,0.511111,0.269504,0.368421,0.0,1,0.375,0.292683,0.734463,0.336207,0.615385,0.175644,1.0,0.0833333,0.0,1.0,0.655556,0.866707,0.744747,0.751469,0.633385,0.562358,0.632819,0.545826,0.675311,0.872125,0.882535,0.349458,0.141396,0.537961,0.254698
0.306667,0.511111,0.347518,0.105263,0.0,0,0.375,0.0243902,0.663842,0.228448,0.0,0.0,0.328947,0.583333,0.0,1.0,0.432944,0.293479,0.409831,0.368504,0.374053,0.296154,0.402708,0.503464,0.343927,0.374284,0.370144,0.642857,0.522847,0.314841,0.259458
0.44,0.0222222,0.148936,1.0,0.0,3,1.0,0.439024,0.584746,0.258621,1.0,1.0,0.0,0.0,0.0,1.0,0.366228,0.341714,0.505664,0.389969,0.312765,0.323442,0.605663,0.372519,0.635127,0.259103,0.324076,0.664722,0.198588,0.604226,0.440289
0.78,0.533333,0.35461,0.105263,0.0,0,0.3125,0.0731707,0.714689,0.24569,0.0,0.0,0.763158,0.0833333,0.0,1.0,0.732262,0.288493,0.43468,0.34845,0.293304,0.040661,0.353849,0.494646,0.317473,0.424196,0.450392,0.601557,0.519604,0.38916,0.22638
0.6,0.0444444,0.361702,0.605263,0.0,1,0.0,0.0487805,0.0,0.00431034,0.725275,0.156128,0.907895,1.0,1.0,0.0,0.50308,0.414992,0.771312,0.977406,0.265459,0.751394,0.644536,0.530715,0.474472,0.553358,0.62872,0.495354,0.221221,0.352696,0.330074
0.313333,0.444444,0.886525,0.105263,0.0,0,0.3125,0.0487805,0.711864,0.293103,0.0,0.0,0.763158,0.0833333,0.0,1.0,0.610049,0.297862,0.326598,0.368279,0.38565,0.277583,0.402708,0.503464,0.424262,0.477948,0.493488,0.480088,0.425569,0.383783,0.409731
0.34,0.377778,0.64539,0.105263,0.0,0,0.25,0.219512,0.833333,0.142241,0.0,0.0,0.0,0.0,0.0,1.0,0.396093,0.261535,0.270496,0.300153,0.282628,0.229298,0.445487,0.707805,0.349625,0.664523,0.646801,0.250495,0.421166,0.502069,0.209711
0.293333,0.533333,0.0780142,0.105263,0.0,0,0.375,0.0243902,0.751412,0.232759,0.0,0.0,0.763158,0.0833333,0.0,1.0,0.44621,0.424658,0.362778,0.502937,0.275523,0.277583,0.402708,0.503464,0.343927,0.393481,0.407296,0.50924,0.490421,0.561213,0.409731
0.28,0.444444,0.0992908,0.105263,0.0,0,0.3125,0.0731707,0.69209,0.237069,0.0,0.0,0.328947,0.583333,0.0,0.0,0.438014,0.244673,0.771312,0.368504,0.240472,0.294297,0.402708,0.503464,0.343927,0.530419,0.551444,0.460653,0.490421,0.534329,0.409731
0.293333,0.466667,0.0851064,0.105263,0.0,0,0.375,0.0487805,0.830508,0.383621,0.0,0.0,0.328947,0.583333,0.0,1.0,0.600351,0.231162,0.220069,0.368053,0.539365,0.29244,0.402708,0.503464,0.929706,0.509943,0.506862,0.47037,0.321806,0.974211,0.561957
0.286667,0.488889,0.687943,0.105263,0.0,4,0.125,0.0731707,0.649718,0.271552,0.0,0.0,0.0,0.0,0.0,1.0,0.426139,0.146961,0.222953,0.214544,0.408526,0.249726,0.523472,0.336775,0.385562,0.35427,0.289777,0.675888,0.703781,0.394536,0.409731
0.0866667,0.266667,0.602837,0.973684,0.0,0,0.375,0.219512,0.714689,0.24569,0.0,0.0,0.328947,0.583333,0.0,1.0,0.587776,0.228314,0.441525,0.487189,0.428898,0.404686,0.621391,0.651736,0.201751,0.325652,0.33745,0.659863,0.63958,0.314048,0.569104
0.78,0.533333,0.35461,0.105263,0.0,0,0.3125,0.0731707,0.714689,0.24569,0.0,0.0,0.763158,0.0833333,0.0,1.0,0.378023,0.337048,0.669871,0.372011,0.277989,0.431148,0.495822,0.620659,0.581542,0.424196,0.450392,0.601557,0.519604,0.335393,0.179153
0.133333,0.577778,0.638298,0.0,0.0,0,0.3125,0.121951,0.714689,0.24569,0.0,0.0,0.0,0.0,0.0,1.0,0.569284,0.363576,0.542204,0.459185,0.448546,0.308341,0.57861,0.548949,0.573109,0.291303,0.297856,0.765985,0.528283,0.459056,0.409731
0.1,0.444444,0.319149,0.105263,0.0,0,0.3125,0.195122,0.714689,0.24569,0.0,0.0,0.763158,0.0833333,0.0,1.0,0.339977,0.321687,0.371905,0.443165,0.407543,0.0786433,0.438605,0.41719,0.619206,0.410119,0.438503,0.523817,0.522847,0.545083,0.409731
0.333333,0.466667,0.631206,0.105263,0.0,0,0.25,0.121951,0.751412,0.172414,0.0,0.0,0.0,0.0,0.0,1.0,0.439025,0.309814,0.31986,0.368504,0.317443,0.299869,0.459487,0.503464,0.343927,0.213282,0.296544,0.648671,0.45734,0.416043,0.409731
0.306667,0.288889,0.851064,0.105263,0.0,0,0.1875,0.097561,0.675141,0.280172,0.0,0.0,0.763158,0.0833333,0.0,1.0,0.356104,0.194637,0.680225,0.504067,0.436278,0.26644,0.402708,0.503464,0.343927,0.474108,0.481599,0.480088,0.425569,0.475186,0.409731
0.32,0.311111,0.070922,0.105263,0.0,0,0.3125,0.0243902,0.864407,0.340517,0.0,0.0,0.328947,0.583333,0.0,0.0,0.438014,0.363155,0.315284,0.368504,0.240472,0.273869,0.402708,0.503464,0.343927,0.458751,0.480113,0.300313,0.425569,0.523576,0.209711
0.26,0.4,0.595745,0.105263,0.0,0,0.3125,0.121951,0.751412,0.198276,0.0,0.0,0.763158,0.0833333,0.0,1.0,0.499547,0.217265,0.216683,0.368504,0.350138,0.288726,0.402708,0.503464,0.343927,0.310295,0.33745,0.659863,0.522847,0.174094,0.209711
0.0466667,0.377778,0.0567376,0.105263,0.0,0,0.25,0.121951,0.714689,0.24569,0.0,0.0,0.0,0.0,0.0,1.0,0.42474,0.286759,0.376408,0.445894,0.50367,0.292513,0.608203,0.525649,0.245583,0.329385,0.261536,0.649476,0.786591,0.545083,0.409731
0.466667,0.266667,0.985816,1.0,0.0,3,0.875,0.292683,0.175141,0.228448,1.0,1.0,0.0,0.0,0.0,1.0,0.520203,0.307348,0.324139,0.389969,0.266291,0.27217,0.331725,0.636973,0.189563,0.288538,0.416212,0.689016,0.295865,0.38916,0.215268
0.293333,0.466667,0.333333,0.105263,0.0,0,0.375,0.0487805,0.641243,0.288793,0.0,0.0,0.328947,0.583333,0.0,1.0,0.452809,0.379792,0.227169,0.368279,0.261736,0.288726,0.402708,0.503464,0.65188,0.515062,0.512807,0.441217,0.425569,0.607193,0.371559
0.306667,0.866667,0.553191,0.105263,0.0,0,0.1875,0.097561,0.725989,0.125,0.0,0.0,0.763158,0.0833333,0.0,1.0,0.341083,0.35957,0.359252,0.368504,0.287234,0.299869,0.779934,0.503464,0.343927,0.34101,0.37906,0.59184,0.584456,0.34077,0.409731
0.533333,0.0444444,0.148936,0.605263,0.0,1,0.0,0.0243902,0.248588,0.0215517,0.725275,0.156128,0.907895,1.0,1.0,0.0,0.5497,0.414992,0.771312,0.977406,0.843812,0.667729,0.674656,0.45392,0.474472,0.602726,0.612373,0.31094,0.305698,0.269664,0.285502
0.233333,0.6,0.716312,0.105263,0.0,4,0.1875,0.0487805,0.522599,0.310345,0.0,0.0,0.0,0.0,0.0,1.0,0.426792,0.364804,0.467134,0.560012,0.326315,0.480008,0.644453,0.626923,0.200662,0.460057,0.382304,0.578651,0.386913,0.367653,0.209711
0.3,0.377778,0.87234,0.105263,0.0,4,0.25,0.0243902,0.299435,0.323276,0.0,0.0,0.0,0.0,0.0,1.0,0.544984,0.375226,0.405304,0.605053,0.281867,0.693576,0.434939,0.706757,0.452663,0.482086,0.427483,0.440092,0.870349,0.416043,0.409731
0.24,0.755556,0.631206,0.105263,0.0,0,0.125,0.121951,0.680791,0.12069,0.0,0.0,0.0,0.0,0.0,1.0,0.498246,0.418742,0.497014,0.678514,0.3792,0.66572,0.741044,0.571613,0.305328,0.368369,0.449848,0.570355,0.349712,0.485939,0.409731