File: 4 - Dataset/new_weld_data_with_target.csv
Carbon concentration (weight%),Silicon concentration (weight%),Manganese concentration (weight%),Sulphur concentration (weight%),Phosphorus concentration (weight%),Oxygen concentration (%),Nitrogen concentration (%),Current (A),Voltage (V),Heat input (kJ/mm),Interpass temperature (deg C),Post weld heat treatment temperature (deg C),Post weld heat treatment time (hours),Nickel concentration (weight%),Chromium concentration (weight%),Molybdenum concentration (weight%),Vanadium concentration (weight%),Copper concentration (weight%),Titanium concentration (%),Aluminium concentration (%),Boron concentration (%),Niobium concentration (%),AC or DC,Electrode positive or negative,Type of weld,Yield strength (MPa),Ultimate tensile strength (MPa),Elongation (%),Reduction of Area (%),Charpy temperature (deg C),Charpy impact toughness (J),Hardness (kg/mm2),target
0.09,0.2,1.25,0.011,0.022,0.069,0.0082,150.0,37.5,1.0,300.0,690.0,3.0,1.71912,2.4,0.9,0.174189,0.148993,0.0221137,0.0515918,0.00282926,0.0432312,0.0,1.0,0.0,594.0,680.0,20.0,66.0,,,231.0,1
0.069,0.3,1.36,0.007,0.009,0.0432,0.0068,170.0,21.0,1.0,200.0,0.0,0.0,0.526955,3.18257,0.852303,0.1029,0.400491,0.0037,0.0005,0.00199241,0.0237935,0.0,1.0,0.0,,,,,-72.0,100.0,,0
0.055,0.35,1.93,0.007,0.011,0.0421,0.0082,170.0,21.0,0.6,200.0,0.0,0.0,0.775064,5.7464,0.480766,0.0752066,0.16294,0.00139835,0.007,0.000773747,0.0029758,0.0,1.0,0.0,,,,,-28.0,100.0,,-1
0.048,0.33,1.85,0.007,0.013,0.0421,0.0082,170.0,21.0,1.0,200.0,250.0,14.0,0.209381,0.26,0.486974,0.0505701,0.243548,0.0160095,0.0212343,0.00119475,0.00786923,0.0,1.0,0.0,567.0,622.0,26.0,75.0,,,,-1
0.075,0.3,1.31,0.008,0.006,0.0441,0.0081,170.0,21.0,1.0,200.0,0.0,0.0,0.412557,1.5151,0.612357,0.0005,0.0830941,0.0005,0.0005,0.0005,0.0005,0.0,1.0,0.0,,,,,-29.0,100.0,,-1
0.072,0.38,1.5,0.006,0.01,0.0291,0.0077,170.0,21.0,1.0,200.0,0.0,0.0,0.461447,1.35831,0.428673,0.018,0.146245,0.026,0.0308409,0.00128098,0.00786923,0.0,1.0,0.0,509.0,578.0,26.4,78.9,,,,-1
0.076,0.51,1.3,0.005,0.008,0.0423,0.005,170.0,21.0,1.0,200.0,580.0,2.0,0.405699,1.35831,0.47247,0.0005,0.505404,0.0043,0.049,0.0005,0.0005,0.0,1.0,0.0,417.0,528.0,29.0,78.9,-84.0,28.0,,-1
0.078,0.35,1.02,0.007,0.005,0.0368,0.0083,170.0,21.0,1.0,200.0,580.0,2.0,0.360431,1.97189,1.16151,0.0004,0.0579187,0.0036,0.0005,0.0005,0.012,0.0,1.0,0.0,447.0,540.0,30.4,77.0,-55.0,100.0,,-1
0.072,0.24,1.32,0.006,0.008,0.0397,0.0068,170.0,21.0,1.0,200.0,0.0,0.0,1.08399,6.61861,1.16651,0.154789,0.225816,0.018,0.0047,0.00265137,0.0553197,0.0,1.0,0.0,,,,,-54.0,28.0,,-1
0.079,0.39,1.37,0.005,0.011,0.0446,0.0047,170.0,21.0,1.0,200.0,0.0,0.0,0.944538,1.35831,0.47247,0.0316237,0.0720009,0.0005,0.025,0.000749981,0.00786923,0.0,1.0,0.0,,,,,-56.0,28.0,,-1
0.079,0.37,1.82,0.006,0.007,0.0324,0.0081,170.0,21.0,1.0,200.0,580.0,2.0,1.20061,2.0908,1.04534,0.0005,0.0830941,0.0255,0.0005,0.0005,0.0005,0.0,1.0,0.0,474.0,575.0,29.4,78.0,-61.0,100.0,,-1
0.07,0.34,1.06,0.006,0.008,0.0463,0.0085,170.0,21.0,1.0,200.0,580.0,2.0,0.212834,1.57,0.231306,0.0808568,0.423389,0.0041,0.00796144,0.00102881,0.0368579,0.0,1.0,0.0,,,,,-48.0,100.0,,-1
0.081,0.48,1.42,0.004,0.006,0.0444,0.0046,170.0,21.0,1.0,200.0,250.0,14.0,1.13475,1.35831,0.47314,0.156333,0.467312,0.0004,0.066,0.00138937,0.0126493,0.0,1.0,0.0,466.0,551.0,26.2,78.9,,,,-1
0.077,0.44,1.61,0.012,0.021,0.0434,0.0105,450.0,30.0,2.025,250.0,200.0,1.0,0.0,0.0,0.0,0.0,0.0,0.0180912,0.018,0.00170896,0.0,0.0,1.0,1.0,455.0,563.0,29.4,73.0,,,,-1
0.07,0.31,0.66,0.006,0.008,0.043,0.0079,170.0,21.0,1.0,200.0,250.0,14.0,0.0,0.0,0.24,0.0005,0.0,0.0005,0.0005,0.0005,0.0005,0.0,0.0,0.0,433.0,518.0,26.0,78.9,-87.0,28.0,,-1
0.1,0.22,0.55,0.009,0.013,0.026,0.0082,500.0,32.0,2.0,250.0,690.0,10.0,0.21,2.68,1.05,0.0179088,0.246763,0.0143153,0.02,0.00169485,0.0211522,0.0,1.0,5.0,492.0,610.0,27.0,,-20.0,147.0,,-1
0.047,0.42,1.0,0.015,0.016,0.0695,0.0165,300.0,28.0,2.08,150.0,690.0,10.0,0.17,2.29,1.04,0.018,0.0830941,0.00597292,0.007,0.000773747,0.0151654,0.0,1.0,2.0,537.0,620.0,11.0,24.0,60.0,164.0,,-1
0.03,0.55,0.88,0.012,0.013,0.0421,0.0082,545.0,32.0,3.7,200.0,720.0,3.5,0.212834,2.06,1.08,0.0840118,0.138802,0.00297475,0.00475447,0.00155618,0.0283249,0.0,1.0,1.0,315.0,500.0,,,,,,-1
0.076,0.28,0.64,0.008,0.008,0.0492,0.0081,170.0,21.0,1.0,200.0,250.0,14.0,0.0,2.1,0.0,0.0005,0.0,0.0008,0.0005,0.0005,0.0005,0.0,0.0,0.0,565.0,660.0,,68.6,26.0,100.0,,-1
0.048,0.13,1.06,0.014,0.016,0.0768,0.0266,300.0,28.0,1.96,150.0,690.0,10.0,0.23,2.02,1.3,0.02,0.0830941,0.00793697,0.007,0.00153596,0.00786923,0.0,1.0,2.0,506.0,598.0,22.0,70.0,-40.0,15.0,,-1
0.077,0.34,1.39,0.007,0.007,0.0409,0.0099,170.0,21.0,1.0,200.0,250.0,14.0,0.212834,1.14236,0.569511,0.0004,0.00802372,0.0032,0.0005,0.0005,0.0455,0.0,1.0,0.0,586.0,641.0,24.2,76.0,,,,-1
0.1,0.39,1.68,0.027,0.01,0.0421,0.0082,650.0,33.0,3.3,300.0,600.0,0.75,0.882397,2.8993,0.5,0.08,0.250586,0.0,0.00459162,0.000779443,0.0,0.0,1.0,1.0,669.0,735.0,,,,,,-1
0.095,0.35,0.9,0.008,0.02,0.0269,0.0054,450.0,30.0,2.025,250.0,200.0,1.0,0.0,0.0,0.0,0.0,0.0,0.00390726,0.017,0.000773747,0.0,0.0,1.0,1.0,408.0,501.0,32.6,77.0,,,,-1
0.098,0.39,2.25,0.008,0.014,0.033,0.0088,180.0,23.0,1.0,250.0,0.0,0.0,0.134,1.35831,0.082796,0.018,0.132931,0.013,0.003,0.00108138,0.00786923,0.0,1.0,0.0,541.0,,,,-20.0,126.0,,-1
0.066,0.35,1.36,0.007,0.008,0.0421,0.0082,170.0,21.0,1.0,200.0,580.0,2.0,1.56139,4.58678,1.04108,0.115441,0.0830941,0.0129966,0.00528599,0.00208988,0.0237638,0.0,1.0,0.0,455.0,540.0,31.2,77.9,-60.0,72.0,,-1
0.074,0.29,1.49,0.006,0.013,0.0471,0.0072,170.0,21.0,1.0,200.0,0.0,0.0,0.179493,1.35831,0.47247,0.018,0.0830941,0.0005,0.0006,0.000773747,0.00786923,0.0,1.0,0.0,,,,,-41.0,28.0,,-1
0.071,0.4,0.64,0.008,0.006,0.0411,0.0088,170.0,21.0,1.0,200.0,0.0,0.0,1.51229,1.48849,0.617094,0.0435,0.0830941,0.0036,0.0005,0.0005,0.0005,0.0,1.0,0.0,,,,,-43.0,100.0,,-1
0.051,0.36,1.79,0.007,0.013,0.0421,0.0082,170.0,21.0,1.0,200.0,580.0,2.0,3.42,1.18899,0.669863,0.0675594,0.155145,0.014931,0.0128846,0.00175685,0.00120929,0.0,1.0,0.0,662.0,745.0,24.0,67.5,,,,-1
0.14,0.38,1.65,0.028,0.01,0.0421,0.0082,650.0,33.0,3.3,300.0,600.0,0.75,0.23115,1.37871,0.5,0.005,0.0403452,0.0,0.00105728,0.000773747,0.0,0.0,1.0,1.0,644.0,714.0,34.0,63.0,,,,-1
0.045,0.33,1.85,0.007,0.016,0.0421,0.0082,170.0,21.0,1.0,200.0,0.0,0.0,1.82783,0.0,0.547731,0.0892859,0.428169,0.00873953,0.0288809,0.00213697,0.00786923,0.0,1.0,0.0,,,,,-45.0,100.0,,-1
0.051,0.32,1.8,0.006,0.012,0.0421,0.0082,170.0,21.0,1.0,200.0,250.0,14.0,0.896755,3.84498,0.691889,0.126501,0.119955,0.00354975,0.015219,0.000922237,0.0121978,0.0,1.0,0.0,507.0,587.0,29.2,76.9,,,,-1
0.074,0.27,1.11,0.009,0.024,0.0556,0.0113,290.0,29.0,2.0,150.0,690.0,10.0,0.17,2.3,0.96,0.018,0.0830941,0.00471423,0.007,0.00136753,0.0144701,0.0,1.0,2.0,595.0,675.0,24.0,69.0,0.0,31.0,,-1
0.06,0.34,1.08,0.007,0.014,0.048,0.011,116.0,23.0,1.3,175.0,760.0,2.0,0.69,9.0,1.03,0.29,0.02,0.01,0.01,0.00309431,0.01,0.0,1.0,0.0,,,,,,,204.0,-1
0.077,0.35,1.02,0.007,0.005,0.0399,0.0075,170.0,21.0,1.0,200.0,580.0,2.0,0.212834,0.136237,0.413282,0.0004,0.0830941,0.0041,0.0005,0.0005,0.0005,0.0,1.0,0.0,332.0,461.0,33.3,80.3,-80.0,100.0,,-1
0.069,0.3,1.36,0.007,0.009,0.0432,0.0067,170.0,21.0,1.0,200.0,0.0,0.0,0.545602,1.35831,0.646194,0.0005,0.227269,0.0037,0.0005,0.0005,0.0005,0.0,1.0,0.0,,,,,-72.0,100.0,,-1
0.068,0.32,1.38,0.004,0.005,0.0376,0.0074,170.0,21.0,1.0,200.0,250.0,14.0,0.212834,1.35831,0.47247,0.00539263,0.293399,0.0077,0.0175893,0.00105711,0.00786923,0.0,1.0,4.0,466.0,542.0,30.6,80.6,,,,-1
0.07,0.46,1.19,0.01,0.018,0.0771,0.0046,280.0,30.0,2.8,200.0,200.0,14.0,0.01,0.1,0.335576,0.016,0.0600516,0.043,0.037,0.0019,0.007,0.0,1.0,2.0,,538.0,,,,,,-1
0.089,0.22,1.05,0.007,0.013,0.0592,0.046,180.0,34.0,1.0,175.0,750.0,8.0,0.602509,9.0,1.04,0.23,0.338079,0.0236444,0.0121022,0.0064,0.07,0.0,1.0,0.0,643.0,777.0,15.7,60.2,21.0,50.0,,-1
0.084,0.3,0.54,0.005,0.008,0.066,0.0066,170.0,21.0,2.4,175.0,690.0,2.33,0.036,2.2,1.05,0.0167453,0.035,0.0143317,0.00382105,0.000538261,0.0116847,0.0,1.0,1.0,,,,,-50.0,40.0,,-1
0.074,0.25,0.58,0.008,0.01,0.05,0.0089,170.0,21.0,1.0,200.0,250.0,14.0,0.0,1.59,0.0,0.0005,0.0,0.0004,0.0005,0.0005,0.0005,0.0,0.0,0.0,494.0,593.0,19.0,71.9,-22.0,100.0,,-1
0.08,0.59,1.84,0.013,0.016,0.0155,0.0054,700.0,32.0,4.8,200.0,0.0,0.0,0.01,0.05,0.01,0.01,0.38,0.023,0.024,0.0008,0.0137774,0.0,1.0,1.0,507.0,694.0,30.0,58.0,9.0,35.0,,-1
0.073,0.34,1.49,0.004,0.007,0.0396,0.0084,170.0,21.0,1.0,200.0,0.0,0.0,1.3655,1.35831,0.343631,0.018,0.1621,0.0016,0.007,0.000375232,0.00786923,0.0,1.0,4.0,,,,,-85.0,28.0,,-1
0.076,0.3,1.36,0.008,0.006,0.037,0.0084,170.0,21.0,1.0,200.0,250.0,14.0,1.30537,1.51532,0.993075,0.0004,0.204906,0.0033,0.0005,0.0005,0.0235,0.0,1.0,0.0,540.0,597.0,26.4,76.0,,,,-1
0.037,0.31,1.03,0.007,0.014,0.0421,0.0082,170.0,21.0,1.0,200.0,580.0,2.0,0.212834,0.0,0.316856,0.018,0.0830941,0.00767177,0.007,0.000773747,0.00786923,0.0,1.0,0.0,402.0,490.0,31.0,80.6,-44.0,100.0,,-1
0.06,0.34,1.08,0.007,0.014,0.048,0.011,116.0,23.0,1.3,175.0,720.0,2.0,0.69,9.0,1.03,0.29,0.02,0.01,0.01,0.00198105,0.01,0.0,1.0,0.0,,,,,,,224.0,-1
0.077,0.44,1.61,0.012,0.021,0.0434,0.0105,450.0,30.0,2.025,250.0,200.0,1.0,0.0,0.0,0.0,0.0,0.0,0.0174244,0.018,0.000650546,0.0,0.0,1.0,1.0,456.0,567.0,27.6,73.0,,,,-1
0.08,0.67,1.94,0.013,0.015,0.0142,0.0057,700.0,32.0,4.8,200.0,0.0,0.0,0.51,0.05,0.01,0.01,0.43,0.028,0.022,0.004,0.00786923,0.0,1.0,1.0,489.0,807.0,27.0,42.0,51.0,35.0,,-1
0.06,0.34,1.08,0.007,0.014,0.048,0.011,116.0,23.0,1.3,175.0,0.0,0.0,0.69,9.0,1.03,0.29,0.02,0.01,0.01,0.0020487,0.01,0.0,1.0,0.0,,,,,,,373.0,-1
0.077,0.26,1.73,0.007,0.008,0.0423,0.0072,170.0,21.0,1.0,200.0,250.0,14.0,0.0121941,2.41861,0.64934,0.0235,0.0830941,0.0027,0.0005,0.0005,0.0005,0.0,1.0,0.0,543.0,607.0,23.2,77.0,,,,-1
0.049,0.34,1.42,0.005,0.013,0.041,0.009,170.0,21.0,1.0,150.0,0.0,0.0,0.212834,1.35831,0.50149,0.018,0.00400606,0.00355595,0.0107528,0.000773747,0.00649649,0.0,1.0,0.0,468.0,551.0,29.4,78.7,-53.0,100.0,,-1
0.088,0.34,1.33,0.008,0.007,0.0421,0.0082,170.0,21.0,1.0,200.0,580.0,2.0,0.420329,5.37102,0.703875,0.101651,0.0830941,0.00674603,0.00901065,0.000998281,0.00315523,0.0,1.0,0.0,461.0,568.0,28.6,77.9,-60.0,106.0,,-1
0.11,0.14,0.73,0.002,0.005,0.0254,0.0026,500.0,29.0,2.9,200.0,690.0,24.0,2.32842,2.3,1.03,0.27,0.256588,0.0126058,0.04611,0.00396091,0.02,1.0,0.0,1.0,,685.0,,,,,,-1
0.075,0.32,1.83,0.006,0.007,0.0346,0.0082,170.0,21.0,1.0,200.0,0.0,0.0,0.449864,4.7279,1.051,0.0005,0.0830941,0.017,0.0005,0.0005,0.0005,0.0,1.0,0.0,,,,,-52.0,100.0,,-1
0.14,0.18,0.75,0.002,0.005,0.0256,0.0021,500.0,29.0,2.9,200.0,690.0,8.0,0.53885,2.3,1.01,0.27,0.479514,0.00675813,0.0349497,0.00158071,0.02,1.0,0.0,1.0,,770.0,,,-20.0,80.0,,-1